AF3,F7,F3,FC5,T7,P7,O1,O2,P8,T8,FC6,F4,F8,AF4,eyeDetection,time_sec
-0.13459307213521246,-0.4404835666494023,-0.6990581514741022,-0.47317918410202386,-0.49347091302343327,-0.33110380754736557,-0.27554111039257945,0.026950874237186114,-0.2645321568539885,-0.09903939216729589,-0.1802324530766435,-0.4187071359231259,0.11814659376615652,-0.07366661412672601,0,0.0
-0.34625579405962464,-0.7330733662414309,-0.3376523187173503,-0.32270501893248765,-1.8859028450247393,-0.28955465766686195,-0.2005612162868367,-0.3794985789287027,-1.543694399399503,-1.3993367665685075,-0.4979645044923841,-0.5192498368282253,-0.13418276704743,-0.5188057968227978,0,0.0078125
-0.3592948864805901,-0.7227804004304544,-0.10442643099505618,0.03844119752873676,-2.285276848043489,-0.6937681270548495,-0.15134082203487942,-0.7847939658738817,-1.258217405645934,-1.4703321321818141,-0.5274837826389032,-0.2696428484311706,-0.23694191541282794,-0.4366406260684797,0,0.015625
-0.14457191790546736,-0.34445949537108494,0.01198417404200992,0.16607734433571594,-1.506642374453024,-0.8349351495185381,-0.1914546414077677,-0.9981365068963965,-0.7409604201618372,-0.2884307039723094,-0.19870641897985467,0.3287185454404265,-0.08368832496253285,0.10520373509040588,0,0.0234375
0.04918729742122074,-0.06378279070842548,-0.13383530910793898,0.1435150506801114,-0.7737319014579583,-0.42523571559071527,-0.3549996663315593,-1.5143027356726924,-1.4102029282457496,0.3337982148489032,0.13990372791549052,0.6212952503879605,0.12058130919058413,0.49393789262361437,0,0.03125
-0.002955781964004003,-0.2666162357820715,-0.5768787498617504,0.29978267009114273,-0.9719107086647751,-0.3186152989076426,-0.739368426865001,-2.3271536945547213,-1.7819474147301428,-0.4553617848700816,-0.06886336393237397,-0.0584678305051667,0.04701174105056548,0.2078980981294275,0,0.0390625
-0.198005969269146,-0.6159734959321927,-1.0441059482754842,0.09050958851030676,-1.3243465590512202,-0.7072250512643788,-1.2691099509158819,-2.5722278653171515,-1.1744128715247208,-1.1046342414048247,-0.8635777985823937,-1.2211118331489819,-0.33983558412808307,-0.4617817446657493,0,0.046875
-0.29961674037210817,-0.6625706223909703,-1.3699906999882676,-0.6777094915007105,-1.1921886010774232,-0.8294897406435653,-1.3646368991900852,-2.635256338245631,-1.7213609009993849,-0.855341689020239,-1.354915874196612,-1.6048750498258801,-0.5803838173139031,-0.620509984236471,0,0.0546875
-0.23004818191284926,-0.46236684202825623,-1.4610379846716373,-1.073416583608386,-1.0293788200778395,-0.7274665604888987,-0.865088626989941,-3.147170644454943,-3.0988157062042494,-0.6475780444024971,-0.7658664693590055,-0.9692292250577036,-0.15197798053269126,-0.12786339620203008,0,0.0625
-0.13445195669954568,-0.30694876954575834,-1.3583185076070918,-0.7650064125219527,-1.0804406528828443,-1.0189433665303256,-0.7036143555288928,-3.1021401463320264,-2.6267966259834585,-0.7506131752076528,0.14406334063175186,-0.4387013522560323,0.4388761686214376,0.06865410630607091,0,0.0703125
-0.26097529390087165,-0.4698806353573549,-1.710205664966546,-0.6572290902203534,-1.3077094175347825,-1.349304253009675,-1.256195094588523,-2.3351952750502196,-1.5348760782394182,-0.8984376005645991,-0.024109816489435117,-0.9366626144919507,0.08685211581704128,-0.45785510962828047,0,0.078125
-0.6264571901535996,-0.952630998447249,-2.860096985565547,-1.3034152275202735,-1.8496629401918472,-1.1408149089746742,-1.4849427498265182,-2.3325289792537465,-2.332218748389607,-1.20194429566128,-1.1034972092784676,-2.085273111688968,-0.9526666845600429,-0.9940975625129657,0,0.0859375
-0.8927600131601651,-1.2233169134899715,-3.6933047544809385,-2.0520932716802576,-2.2078193096253034,-0.7889775464186319,-1.019661390729573,-2.7973637559765985,-2.94061208746929,-1.3843242295752232,-1.6953715544839623,-2.5683219750803397,-1.4065987466363115,-1.030699455419202,0,0.09375
-0.8496402188132388,-0.9738800917512158,-3.2665517310098897,-2.1390261733730638,-1.8297997250807048,-0.6567440453121621,-0.8009433210410227,-2.0712883977153775,-1.4362954112176376,-1.148149744118962,-1.3543704775599084,-1.6993398338410686,-1.1322317824060397,-0.7939180404753465,0,0.1015625
-0.7568662255273184,-0.751349732701603,-2.6511070850453904,-1.865370881087421,-1.5041328662059301,-0.5248726365534573,-0.9292675695012855,-0.8044830525865914,-0.36984782593810717,-0.9479534508230355,-0.8826693941892022,-0.760837887401814,-0.9664369718500904,-0.6398273347999559,0,0.109375
-0.866465508630018,-0.9287655512368379,-3.0223511616167795,-1.9184133497411753,-1.8346125400216835,-0.5159722419954057,-0.6363398435876907,-0.7239101654403498,-1.052789326952991,-1.027335432391379,-0.9265273497832622,-1.336721051377119,-1.1664768353106036,-0.7557333716708127,0,0.1171875
-0.977399690091233,-1.096282685591444,-3.5728964842045188,-2.126865300941255,-1.9090779856100093,-0.7995756611656171,-0.3249135664520436,-1.4912985158335954,-1.4751312374410555,-0.9597297964621565,-1.3370197295241115,-2.577659844909555,-1.3373273348886692,-0.875991331561814,0,0.125
-0.8608285827798065,-1.019731779425251,-3.3150942995628725,-2.061054143010235,-1.4004956916267757,-0.893133840877022,-0.802529668542597,-2.082391888511934,-1.5611670065594028,-0.7961719237264551,-1.6042590413489608,-2.6087146262153658,-1.1549630722142443,-0.617320919553027,0,0.1328125
-0.6628463894625397,-0.9008853302129453,-2.77277327919965,-1.9806223948381532,-1.1478312910887039,-0.5443355739046543,-1.3646028398425436,-2.565407447796971,-2.474902420701068,-1.207125935593428,-1.417226600184481,-1.6249724021407526,-0.6949846265968936,-0.34045801934680026,0,0.140625
-0.4973222785855201,-0.7594898345099781,-2.5226033888321813,-2.04873640776395,-1.0565478810307636,-0.25209541448126727,-1.09943694670413,-2.819158085839528,-2.652625105851392,-1.7848748791817464,-0.745526785131402,-0.9330462157328473,-0.27554584713438873,-0.32707357844866813,0,0.1484375
-0.29381827474053385,-0.5266779360270272,-2.302968017532078,-1.8397181262838715,-0.6799634266566799,-0.3353101766160068,-0.5449806094164723,-2.3506826344043064,-1.15754753619919,-1.0627875680865433,0.22202067325278832,-0.6909934402608189,0.06474988226237875,0.009200731645478367,0,0.15625
-0.24363310585251452,-0.34231327018518737,-2.0756492822679373,-1.3359121710513515,-0.8425420108177023,-0.48891856663595673,-0.4337822206523272,-1.620726921430502,-0.2930608058097146,0.6142029221939362,0.8262391639229458,-0.6182626241298463,0.44601562130506295,0.5330679464612572,0,0.1640625
-0.4751002036690444,-0.37747822843115386,-2.131760639901423,-1.0814904961858347,-1.8379778264078401,-0.47226625606993,-0.6353781583308298,-1.3432110210154329,-0.7530377641404904,1.1675483214777835,0.5089766203250217,-0.8607835361158214,0.5974507390652289,0.22161191316930254,0,0.171875
-0.5514279883561323,-0.5583598054136893,-2.266988778986603,-1.1749462386453695,-2.16846978484826,-0.5294887115509126,-0.8681409729579398,-1.0860006781977303,-0.19518783660009173,0.6917607789681612,-0.025812955863280293,-1.1218527314952007,0.3971867165721074,-0.5208040983813624,0,0.1796875
-0.33529550843250366,-0.619373195128057,-2.1980895668558555,-1.2885327484031024,-1.208326908737566,-0.7478005277114831,-0.9860088901340511,-0.10489930762830155,1.5864473370705936,0.9697983297129135,0.11002231614712432,-0.9486307453544784,0.24829164238550352,-0.3975337955789177,0,0.1875
-0.4393585199804873,-0.6543827907923513,-2.384530271971903,-1.476661684261161,-0.6801090803346215,-0.7160503789980691,-0.9266920003136532,0.8933783227044104,1.7587417797773557,1.3258942580852904,0.10407690152881606,-0.9790768068258785,0.04901939588667373,0.05159948464972724,0,0.1953125
-0.9590736920905041,-1.0160669500144703,-3.1493604991569963,-1.9506292869850803,-1.7311999608428634,-0.49659897627326177,-0.9018313484522822,0.36777354419497,-0.48129670031135025,0.09310439341098585,-0.9308211584443679,-1.8949397179554963,-0.6600053244224107,-0.5132453734530291,0,0.203125
-1.1672588845792768,-1.3361010851757997,-3.532436238682411,-2.2918886575987485,-2.7848892447909566,-0.7113517312540562,-0.9641335855089688,-1.3232588933652807,-2.2916771189520517,-1.4994065778122612,-1.8256836620727661,-2.684149851515804,-1.2948352767371751,-1.3941252576538266,0,0.2109375
-0.8701134179674689,-0.9873978268673188,-2.674583037069516,-1.9053218776073988,-2.212987360754984,-1.1507950974310601,-0.8606881931186418,-2.0523223061562517,-1.9232407430496796,-1.6056538378059453,-1.5136554955459534,-2.1913628205302333,-1.1161237575072642,-1.1973941665332326,0,0.21875
-0.6185801306847177,-0.4644254749517506,-1.5742707765567459,-1.240104565248179,-1.1687296130617308,-1.1061209658757363,-0.6873091669710799,-1.551752663015232,-1.4083341622092693,-1.12385299035758,-0.970842141154781,-1.3435887055364626,-0.7646553417516453,-0.5212820791796563,0,0.2265625
-0.644551967709968,-0.5513049764351923,-1.4927508714417204,-1.2776603722824798,-1.4683499960074045,-0.8641513679237448,-0.797761380179452,-1.6331367394902878,-2.216606436090441,-1.3424197469727348,-0.8970539963156778,-1.334476206820418,-0.8045157080503025,-0.4421492549310148,0,0.234375
-0.6739231314078447,-0.8237082621439962,-1.805382557575698,-1.7629190405572321,-2.456836184903463,-1.032784912767083,-1.140499746782956,-2.377841000912801,-2.5111003571494925,-1.4593768977817914,-0.5034878943525108,-1.351994900363751,-0.5536344244968382,-0.4277215993917295,0,0.2421875
-0.542529986581998,-0.6620879445703608,-1.4732001992793113,-1.718925781105115,-2.4489801499716317,-1.3277820720279383,-1.104204175542856,-1.9901778943958277,-1.2367944232687536,-0.7325148564348775,0.25485622635895194,-0.6408079604851351,0.10274148668765444,-0.02412220038674956,0,0.25
-0.38283105898377906,-0.5202103679363391,-1.0621948942490225,-1.370945030586413,-1.6622976688434123,-1.1830449689700133,-0.10679064486396998,-0.3575830594631266,0.10202892356116712,-0.036633868974643574,0.42568129580134695,-0.23539565973258209,0.2505600842532733,0.06070427209690736,0,0.2578125
-0.3357386021204434,-0.7752497095575814,-1.409378186965524,-1.4811037538899834,-1.4630277630323332,-0.66092726710483,1.0074378470228877,0.5966675860681898,0.609919356032257,0.1454226320859239,0.16785434493204868,-0.6055599385000042,-0.04063432402814264,-0.27501184264616085,0,0.265625
-0.3888140113755602,-0.8377342426424756,-1.9981887624479138,-1.7731586351675686,-2.001180301502027,-0.4833249357773047,0.415269037910777,-0.11870045866188728,0.3496208533464444,0.4213503695038552,0.28289660544214734,-0.7603561323488729,0.14852512187667058,-0.419705677165502,0,0.2734375
-0.5206428935730589,-0.5386715942119705,-2.177516320126716,-1.7703280468378058,-2.3734219906091982,-1.0765979680991518,-1.4333874211989661,-1.4245134622755729,-0.818338454548965,0.4877642806934446,0.3022320753695947,-0.6188858384387261,0.5628249159999927,-0.4381759511025041,0,0.28125
-0.7415448714173003,-0.6367002555828467,-2.2396415405047803,-1.7397247039541925,-2.3106797602905997,-1.6793069318111646,-2.0320496455855963,-2.0806140246025198,-2.124335769762747,-0.6243587778141494,-0.5504216281043268,-1.0204245719236762,0.17361746475338785,-0.5609611136297452,0,0.2890625
-0.9099316789843597,-1.1342722340625393,-2.3208817895322733,-1.84193031651476,-2.228320902657707,-1.6508140440165713,-1.1716034675489024,-2.105453582998953,-2.321709823910173,-2.1094839491717874,-1.5031871103944494,-1.6744994037713334,-0.7906733593275324,-0.6124765437359476,0,0.296875
-0.8053829395818662,-1.119365369888445,-2.0540932040494093,-1.7622050342816598,-1.9251664546879805,-1.5490675783446568,-0.6424288812717781,-1.6727067492302399,-1.372696370308127,-2.067980254178352,-1.3878993689980892,-1.663723058630652,-1.0684201117018501,-0.577877251427005,0,0.3046875
-0.49266395666016816,-0.6162710752894873,-1.6539482745612215,-1.4897140536038032,-1.0566343682760424,-1.4986261007616126,-0.4068501796226415,-0.7087632688864953,-0.32412922555741025,-0.6200105246554027,-0.6068885466205839,-1.0179668271387878,-0.44091722246980625,-0.4415146923563715,0,0.3125
-0.37441545836581125,-0.5444763768679267,-1.6924822996631732,-1.4171607210472403,-0.7886970247105183,-1.170264604231061,0.25882440882119556,-0.14514362414893753,-0.2965605922084192,0.06422708358870981,-0.32236225417819725,-0.566232762482288,-0.05634972336380992,-0.25092993230494787,0,0.3203125
-0.6556495360213865,-0.991119834537384,-2.0686789204088893,-1.5754445513829145,-2.0682026013044434,-1.326547866868979,0.35610121143493495,-0.660269768705902,-0.8504661763767947,-0.8825354289032407,-0.6269209166764009,-0.88850486750136,-0.46635973929681956,-0.45523751636942955,0,0.328125
-0.9109723480901546,-1.1220185520133303,-2.2918677788509316,-1.5393082586052231,-2.9164038790472686,-2.0523655233438816,-0.49895876413608914,-0.9497616911713564,-0.3137524378633112,-1.5927097261558927,-0.6242555532721555,-1.355739383194771,-0.727075219952269,-0.7907143781875436,0,0.3359375
-0.6777059266139519,-0.5784218301620057,-2.179385169124228,-1.2697007665648214,-1.6496071496329527,-1.8594306404919825,-0.7061700804964043,-0.2595431128310188,0.8434552375774635,-0.5375467152309987,0.223545142752685,-0.8857075823616218,-0.06943696297867744,-0.4014910900812838,0,0.34375
-0.24876402053740976,-0.06885351640509921,-1.8438325615969653,-1.2422670939983556,-0.5133999658812219,-0.8416946498285847,0.2893979303078148,0.1047620680364678,0.7594209845317381,0.9705052475840089,1.2999858538905291,-0.022095343365912477,0.8197060513874106,0.28236234063427657,0,0.3515625
-0.08625062608995777,-0.2800399105753916,-1.3934861097186464,-1.4761752551263017,-1.3719523417946144,-0.7173779692995442,0.8412669107260901,-0.29599794883789127,0.03578201809520566,1.3487768350171796,1.6295592834190045,0.14623622957165228,1.1015597897405196,0.4275008642377918,0,0.359375
0.00520712114328379,-0.6817568163363377,-0.8149269778540493,-1.4407144429249463,-2.0994727229168157,-1.402855804271408,0.10245018003665034,-0.4543606676986495,-0.012877167949029954,1.1614978970434022,1.361142187805916,0.3436217228876244,1.1008153023464842,0.47986768360348636,0,0.3671875
0.21316910151394353,-0.4440084625535167,-0.3085986679249397,-1.1083176196083957,-1.0643996898746837,-1.364929650822047,-0.568298381501101,-0.359389980199042,-0.030236344003910204,1.0384806936493989,1.2032637684428573,0.9810071350985009,1.2018733368601249,0.6709841138482473,0,0.375
0.1577500510104998,0.040667693969925325,-0.3430073719247357,-1.009313742607614,0.05976170326970853,-0.42883145814038587,-0.2561363855015309,-0.7394084587085615,-0.4980160648472315,0.39136161119825064,0.7838958915416805,0.5134762325438942,0.8507896269011649,0.3291775361210641,0,0.3828125
-0.26275945338623763,-0.08730185602506574,-0.8895556354699768,-1.2625400321098208,-0.2318325830377963,0.25209478134379887,0.0916358004288297,-1.4408818871972893,-0.9893117095814683,-0.889161175995395,-0.38859707190454984,-1.1987988800756268,-0.17766336329175644,-0.49574469469301186,0,0.390625
-0.5225867943821171,-0.6269575371623728,-1.2289843431182719,-1.4229642040354846,-1.0345628429227858,0.2217978750660785,0.13515489430372002,-1.6546995453287416,-1.3927567920244759,-1.954859748404379,-1.3208593966691182,-2.0866592936011052,-0.9722018198486846,-0.9875035905906919,0,0.3984375
-0.33797910162747485,-0.6710217913631393,-0.8250238325838666,-1.1521014853717244,-0.7225732338826524,0.13179436343132472,0.7881120570176472,-1.0025672764953486,-1.2687444917761574,-1.9082976618800243,-0.9322056455622787,-1.3731867385711272,-0.7765780961126464,-0.587595168929199,0,0.40625
-0.026698801577159495,-0.062202265840643714,0.03606067777313335,-0.632266529843993,0.4031181313520619,0.09376453469042738,1.4480950064226765,-0.23612172999349967,-0.3268683910455255,-0.6760486782665136,0.19710603086223535,-0.12587763580758654,0.03762562719503537,0.43207053372472,0,0.4140625
0.09924041640309539,0.33694376523059627,0.6035066308605921,-0.23148655568058443,0.3737670181894908,-0.46796297806775206,0.6881394158022978,-0.3274899417262223,0.3262587164655179,0.48107910561390915,0.7846171655772725,0.5558268825973127,0.5994270839418874,0.8716517184098694,0,0.421875
0.13426744086595588,0.1075447394561126,0.6628260416479245,0.07399458643368512,-0.6714926671129625,-0.9699823695058205,-0.41562880009081693,-0.8092829671071529,-0.05003768167169699,0.6519042254047569,0.5994238875529396,0.22189562640632252,0.6478340488829377,0.35935885746128965,0,0.4296875
0.22817436109732814,-0.09075524412905388,0.6033805732281093,0.22790742764579267,-0.6981865061030336,-0.30611778988386634,-0.006176111378570281,-0.5294542521049842,-0.26666723977744927,0.7078421776150572,0.5343810154384324,-0.29800129664227537,0.7136645897160628,0.14358604873604222,0,0.4375
0.229889572598888,-0.024476564883300016,0.4147869164789966,-0.2637055822127868,-0.30629684471499613,0.9086260572794405,1.1874498588038842,0.47507742209686044,0.7267056317831257,1.2275407282714843,1.048002812375468,0.10176940087231737,0.9523615576049476,0.524286959144257,0,0.4453125
0.06809402693991252,-0.16820209397397837,0.010499943820965169,-0.9599828554568964,-1.0098849678313393,1.2724045658281455,1.6442852843414537,1.2120914142684371,1.7268218395333086,1.4584759732027524,1.393347097805662,0.6719630456564771,0.8179053686294934,0.5166682180367284,0,0.453125
0.05403052721044275,-0.2674356310598257,-0.031187073995585037,-0.6832076417379347,-1.1211610688901634,0.8536889705548438,1.4237028750007825,1.0929226365791695,1.2291963282621894,1.232288034691888,1.1329137107341853,0.4430229771794743,0.45821547875857804,0.3693495181089713,0,0.4609375
0.27494773435509906,0.029057674819698513,0.3224178579055281,0.04512353603405257,0.2874287901325808,0.7823322333756402,1.148621790764159,0.7050710389632385,0.4316559708265058,1.024375690393185,0.9297212153220445,0.318521104417792,0.5059141632760066,0.6499976540056696,0,0.46875
0.29379012839822627,0.07025809172071681,0.28331249303332573,-0.1419629858600592,0.5392872608881687,1.1649182877831221,1.0190674206776063,0.9722475741362611,0.9587026758583148,0.7381416761372472,0.9287948136351419,0.7133620718832205,0.5090678109970094,0.5239641835899477,0,0.4765625
-0.0647627948536603,-0.3146595854419676,-0.03128959563563597,-0.7760438621838578,-1.004754159107221,0.7630243007637312,0.6763558522374722,1.0919199560833743,0.9902712480165207,0.12508931262150558,0.4253180901554826,0.4511779426132154,-0.10561061465514288,-0.18616187956246869,0,0.484375
-0.3423678560068038,-0.33836095488474643,0.008847860960897512,-0.8385042176921832,-1.3451257902940532,-0.44094619407366525,-0.2759002223965692,-0.2972096185128813,-1.189016623907658,-0.8435181117597428,-0.44833216915324364,-0.47147827819219534,-0.7027532137849938,-0.359536596210251,0,0.4921875
-0.19942969058080243,-0.02088707418830807,0.0681011690653105,-0.5344027826392878,0.1859348427303306,-0.5668649866370462,-0.9029655817061206,-1.6486041616071738,-2.6614768957609636,-1.8136203934043773,-0.7651984477032773,-0.6524736510982746,-0.8062624989087342,-0.04861541713799587,0,0.5
0.11019347978050964,0.01514329416275701,-0.05399263004905594,-0.1251587728090089,0.9950905931192708,0.3619482949203265,-0.27764958272297013,-0.8834888675880356,-1.1786892836379599,-1.849945386766719,-0.3495594107295465,0.15407280157238362,-0.7234434697493483,-0.12729693349608348,0,0.5078125
0.2720708288694646,-0.018814274897286976,0.36669638521579045,0.38154738639459085,0.3016626763829303,-0.05995451425093693,0.2317190326700182,0.10888966525021707,0.18004853071009985,-0.7494090754971564,0.20806427620371715,0.9012162492118809,-0.42200834452542835,-0.12845268761561676,0,0.515625
0.36590127813512474,0.21964204291933564,1.3079678478392143,0.6581442206402973,-0.2795883332327557,-1.6036894859773043,-0.3617241298805406,-0.6171997844940991,-0.4607487901411144,0.5684393373555006,0.6621640330154923,1.0263580830627708,0.1895192808940878,0.5627095884974542,0,0.5234375
0.46929519227973643,0.35167335135288863,1.704960058018469,0.641625897866576,-0.43874648015834145,-1.3941469841397205,-0.19771415377484416,-0.6842895739778414,-0.2784784208610984,1.5775068671902241,1.220670214976317,0.9926315106391628,0.6870535334862593,1.0489838926900716,0,0.53125
0.4043960504225297,0.17257615340622326,1.3932955170869403,0.4411574294427325,-1.1213550294546593,0.6155071457503095,1.6454148654932292,1.1633867607649668,1.3238057304982012,1.957336009365119,1.7685594194850778,1.443332781627968,0.9035326688383511,0.6957101171172684,0,0.5390625
0.2575372639731742,0.043901436927807964,1.3252992800109096,0.12127776724938838,-1.778968216147109,1.7596052765735608,3.028637739266745,2.019857258070887,1.6482506682218625,1.3596261870808317,1.8813557191073955,2.2517225409958592,1.016902708867219,0.4187260143648892,0,0.546875
0.32078926338588776,0.10885032027884624,1.6753066667008762,0.15498069996395147,-1.3280437933358766,1.5110759654599148,2.816509004648914,1.1569503346852685,1.0525973862486409,0.7317940424542677,1.5279632940559618,2.5410937861715315,0.8995626839605341,0.6920085387352604,0,0.5546875
0.3613322598028015,0.11816590856451599,1.5640507792652982,0.43408810507730317,-0.6187175489639013,1.4813749300782266,2.3287512905685217,0.910537499132208,1.227348268695032,0.7772702241211373,0.9118317678697466,1.7411032373413653,0.38289966636058137,0.5831435884494506,0,0.5625
0.09106401970721038,-0.06314315736121083,0.7418243062154487,0.0991099981016205,-0.7660386352222233,1.6739081045377557,1.9769777758575175,0.8397044739019609,0.6547303533376715,0.3588222541328032,0.07961457058581156,0.3926273503783665,-0.259119026024977,-0.20949984771399816,0,0.5703125
-0.05452387346469415,-0.2432154432075461,-0.039303936991219014,-0.3516828142634541,-0.8341190369598976,0.7177805937026314,0.9947822965139597,-0.6578476697926239,-1.284805666715504,-0.5068210553522291,-0.618935142776522,-0.45938111240421625,-0.5601717956222575,-0.6165768612806761,0,0.578125
0.11826266078593266,-0.11791559624851837,-0.3394054420490342,0.1077100423957279,-0.07879430039033351,-0.8768011322697766,-0.20523693902552764,-2.231969401024261,-2.309610129788922,-0.35137480097714846,-0.7308588326980682,-0.657623839673258,-0.42356232343114375,-0.2214990903162592,0,0.5859375
-0.03203753916872395,0.19524401595271426,-0.5503972151222823,0.4645031254303934,0.14387324998348938,-1.2586733341787373,-0.8637355577734551,-2.788674406277416,-2.2814897235343987,-0.1016844409842098,-0.6651489585174778,-0.9753512213019149,-0.2845063807428862,0.02043986914776102,0,0.59375
-0.5516497361400449,0.1542661425535157,-0.9943869549999658,-0.2128512548740402,-0.6032360452887101,-0.33479486186093066,-1.097826824832367,-2.9654259045663527,-2.4937331592720833,-1.3513621974621364,-1.0564470193938342,-1.4996727111994617,-0.5066193151983983,-0.3977690013798692,0,0.6015625
-0.6064039618806863,-0.16442275933753014,-1.2016721804564323,-0.4622009226307099,-0.495104179340896,0.6842121101117854,-0.7702424775266947,-2.1456108604816055,-1.7458363998515152,-2.362845047282355,-1.4433650002841036,-1.3608529085840302,-0.8374104875055906,-0.7845139538417911,0,0.609375
-0.15908979785951016,0.01714877455715686,-0.6538880401104863,0.5510235471787021,0.8722188121963531,1.4449048386727312,0.11009723957252876,-0.22446911524231203,0.24220631533409318,-1.2632744832685399,-1.1554057513299534,-0.5983096601746553,-0.8901250419834202,-0.5938088990475213,0,0.6171875
0.027731472144614498,0.6568173797755333,0.17222470768995282,1.3580783202617497,1.7359974502452908,2.1614635999811087,0.5288961370347638,0.6446890972804524,1.1175145766777814,0.27590203293189447,-0.7241818823060191,-0.3224466155871767,-0.7713433835186055,-0.14831528100967228,0,0.625
-0.05399803016357659,0.8568833713051507,0.5590487999894468,1.1905059087640975,1.595348228415865,2.7448089054629845,0.4501089020592583,0.2480366036347308,0.942631312248964,0.4435658490787199,-0.7382327806471038,-0.5388359276252315,-0.6723072170844142,0.018965214385339737,0,0.6328125
0.14174679746539415,0.6400141620954998,0.8297609644418549,0.9954505315438889,1.4438711845477246,2.804525005523578,1.00904346658253,0.6776954335470127,1.6319346671806152,0.4310427885230383,-0.4660675094328909,-0.054001942494972,-0.25759821298436586,-0.030189198678057933,0,0.640625
0.5775123977750459,0.8176679001746215,1.5666521999809753,1.266109091460925,1.6660531081970038,2.141450862910679,1.6819934109243069,1.5380200994217883,2.0670839595271278,1.5324439924954367,0.6233943354533252,1.2295296997179959,0.6970997505151864,0.3377375212816577,0,0.6484375
0.8423281871074557,1.1221616998125565,2.2277905676904797,1.4363976008413388,1.7456139330402831,1.5366196221401163,1.1893602123882692,0.818731234451672,0.5352188028549997,2.297479964950609,1.3759060032924426,1.9665450101109223,1.3746476195039903,1.0190282784003948,0,0.65625
0.7443837297896264,0.6403945909778924,1.9505570494585047,1.1131277266513204,0.9142594918680407,1.6697782841296507,0.5197023082445403,-0.7983975447011551,-1.3044195251962418,1.084294580467128,0.7621939927548114,1.4540199067540025,0.9385007486640565,0.9164767705911565,0,0.6640625
0.3982370783274243,-0.12171230541963375,1.1993255396465785,0.758105869659169,-0.3207405019337823,1.7179086582950531,1.0142209578481258,-1.1895153548381494,-1.2832802612256822,-0.6276955071881893,-0.23462676067785784,0.6157149227599911,0.1568128556431442,0.1360351462867217,0,0.671875
0.2271195443395269,0.055101256667287796,1.1324319648737793,0.9774489300635864,-0.15389232118352644,1.3026945065364153,1.6671192767788205,-0.3076367985461788,0.09862228276446824,-0.434285601373001,-0.14523274422586102,0.578223951809658,0.28885740500930307,0.08694027756520978,0,0.6796875
0.47454835040059024,0.8129075712540165,1.7543897568369289,1.4537636841404402,1.1319145481229897,1.3322619701786707,1.4744204514881434,0.40754804947406437,1.1010610412406117,0.9792201075257974,0.7937262263711711,1.2014270926894963,0.9845938116462911,0.6936559869492227,0,0.6875
0.7334309647988775,0.9408686379664276,2.2256165009659683,1.5335141932456215,1.3645779983264346,1.4098087395031493,1.1962352447183096,0.5471952795102607,1.0227202574438936,1.3265622318170793,1.2617806433087515,1.6005617259144584,1.0975129564457702,0.7906202939454634,0,0.6953125
0.6089512595894778,0.4728872318127111,2.208130211151535,1.361407983591752,0.6272761575313301,0.6342974109751737,1.0274092218704753,0.7644082096885689,0.6179333535240319,0.6743604500153125,0.7862781968791042,1.387040383679485,0.5995889747981692,0.5380362508977274,0,0.703125
0.34565439970541734,0.2425164256117924,1.7487712122933334,1.2553948625976714,0.4402288751507488,0.35219444825686963,0.28764862299871496,1.068365197546826,0.7365099340740172,0.6007333704803048,0.14805977667637313,0.8583540006234832,0.22532785343846792,0.45027540164908414,0,0.7109375
0.33820860000332503,0.5523901241032794,1.1896570096893804,1.2352592836652228,0.9732902033458543,1.5259587812664506,-0.2654628757227822,0.8763457303767126,1.0431160117399034,1.0614282994714312,0.14630207155457306,0.5252660102338643,0.20422977038701137,0.19229062495494292,0,0.71875
0.5244059907675354,1.0362539455080821,1.1218236078068493,1.5265182374833728,1.869272928703787,2.297074043265229,0.4883547396259133,0.4264714226565205,0.8096705129783148,0.8491913351780443,0.35396422356479523,0.45058562665819585,0.1390933125626143,-0.24241630644681625,0,0.7265625
0.394436552248786,0.9684511541074966,1.1761239699194581,1.7937104396196208,2.080475223358084,1.687236095202358,1.5828314298279338,0.30754093534853805,0.10107972722662228,-0.3347506054901548,-0.2948658497631456,0.028522978796526773,-0.3661300886516534,-0.5753655274303408,0,0.734375
-0.2190552307667924,0.26444092016922555,0.7415726042421977,1.2494933690272012,0.46783061396771325,1.163836939883608,1.5288371664410956,0.17064797565346201,-0.5373714321188423,-1.6712246738020176,-1.4136219503937202,-0.6740632164540931,-0.9768724054726352,-0.8047775449988221,0,0.7421875
-0.4260998829099989,0.05001386941490408,0.8874250244835067,0.7763142556963909,-0.871698277172487,0.9978727780265436,0.5933408668191602,-0.40555280025238605,-0.6212279362305402,-1.8134108484616676,-1.2344316921956766,-0.2770375583207475,-0.7654775131780877,-0.49599155246277715,0,0.75
0.37436088573076054,0.7707630188199215,2.2882037322996607,1.6565427058353936,0.2869271582658443,0.3350730081086989,-0.1445831070585675,-0.8206338793319485,0.004920820859991465,-0.2437173619969406,0.33586930264544473,1.4015759357384947,0.2553102884853666,0.39790572178303646,0,0.7578125
0.9904828013530302,1.1385308501194902,3.127996415413343,2.496028596542656,1.188848392781233,0.010363574727179541,-0.240619682178939,-0.47971767880953436,0.8105952978881455,1.2669719512269166,1.0951626632181337,2.1936992552375116,0.7043629492510284,0.687897248817715,0,0.765625
0.4727776581741904,0.6029108414823126,2.460915578558666,1.8338716273012352,-0.17363601591775799,0.523768120180622,0.00949821320789144,0.20824171235320754,1.0441498175956965,0.9479505016941984,0.1937581658467609,1.1636832994388862,0.022702370098894947,0.07368583836502823,0,0.7734375
0.04774796955033674,0.34570481399669223,2.027536308726557,1.2782309708523307,-0.443573921001053,0.5762461057453426,0.09378862227187486,0.518236656792706,0.6535188001609504,-0.04673536692252856,-0.5905558136687926,0.2842395559744275,-0.573199050566221,-0.24748863515805733,0,0.78125
0.5687708809566353,0.6353637462659127,2.4704623753038484,1.8816752580676794,1.4324139891940846,0.37480643793956425,0.17671782685575274,0.48262957268924694,0.2864089812617325,-0.21360226633716678,-0.3326146917351578,0.6405423333302023,-0.41540179126732546,-0.06850093095104615,0,0.7890625
0.8624276585052337,0.47643569632320604,2.4832107000466843,2.0433311597360926,1.8490950761445781,1.1060353832786545,0.665350958614421,0.8245634435208534,0.5193916372881564,-0.16822073023452314,-0.11157261547305707,0.966638234939915,-0.24527924035556609,-0.05093366963318554,0,0.796875
0.45082443128255556,0.14334386742939523,2.190937100912902,1.505341385820714,0.6795824449666535,1.5444023751775366,0.9220041589282937,1.5959027747569101,1.177213581960799,-0.19044982333593033,-0.09270138972319139,0.9080165443221814,-0.18138384466718133,0.153341172727195,0,0.8046875
0.2962557768619496,0.4866498902473444,2.3927037928512043,1.6763906852451487,0.6811203728455836,0.7752211849676349,0.44250939874320977,1.910312889223838,1.622999493652506,0.217177526850372,0.4999557354441962,1.2526346885754507,0.19550299104801114,0.6402032345642518,0,0.8125
0.4165956755182214,0.7738015309665978,2.1290735264936616,2.0411447439767656,1.0046263117038252,0.5868332296034647,0.046301833948584184,1.6435878051650676,1.64638709575527,0.3787412962799676,0.9215914019856719,1.3800750391564256,0.22480099080840577,0.41977152415766195,0,0.8203125
0.30870072830549555,0.42411868975903116,1.1370753685119737,1.5951621132691147,0.6988165136327895,1.3852924939549491,0.005103161242542475,1.3794311898003733,1.284811346776178,-0.027008192373760943,0.32516381219931145,0.5965866514667022,-0.4468570731546788,-0.27385040032436475,0,0.828125
0.3865069081716611,0.3776945761291428,0.8223255457580206,1.1997044750839252,1.7189170745099245,1.4467123977192935,-0.28784337509453956,0.8423974581014312,0.45666578619906034,-0.1486574448004647,-0.2613419997493569,-0.11502042552125671,-0.734698664401183,-0.21491819308723706,0,0.8359375
0.5668460600130609,0.727801785148315,0.8385777710406274,1.1234967369604467,3.1643405001757756,0.923428455038889,-0.4334322057786185,-0.04957365427766542,-0.40728415486412756,-0.23314274799225262,-0.24854546038120343,-0.392629861555406,-0.4172049061050928,0.10724600420817632,0,0.84375
0.21288968090614255,0.5866297559703134,0.09562255327684069,0.6931283027328926,2.4081120260285673,1.0477441610294393,-0.05320608339539176,-0.2723387471157817,-0.7104708852261536,-0.8387038195968225,-0.4351008736460265,-0.8803304080843003,-0.5476552889921856,-0.28042382160986185,0,0.8515625
-0.030668590191417072,0.45025911486150705,-0.07585008247643443,0.7402144763171188,1.5624495399217162,1.3509101496833396,-0.07835516501067345,0.310170631647337,-0.569953027634763,-0.9391017938619706,-0.6319361790119681,-0.8383497879850484,-0.9971671290427053,-0.5481191328519909,0,0.859375
0.39807684656003045,0.9195505727656467,0.9293684821703717,1.6117291514167744,2.669418867158841,1.184563263181488,-0.7460959270433027,0.7339512282003273,-0.2032184418376299,-0.18995376997980754,-0.2921687054942692,0.17658914009781757,-0.9899366395160788,-0.2013339678339428,0,0.8671875
0.42866381263429093,0.9333633998159393,0.9446408121255238,1.5561152705803543,2.574117808336049,0.9164894650774217,-1.138370527952369,0.6977694289960428,0.17457920051426626,-0.08899803309277422,-0.34894153806645817,0.2926282925354832,-1.0408756952689435,-0.39443617708029266,0,0.875
-0.2635610571678178,0.19726740912094082,-0.39448750548135303,0.4620264832119949,0.36708522938779886,0.645537082115256,-1.114337909391518,0.23518668113564303,-0.070108972739101,-0.8717570958586716,-1.1333040880820333,-1.0917809861060668,-1.554119491961754,-1.138997230676325,0,0.8828125
-0.4505065543142189,0.023712629592110637,-0.7914445217045377,0.238182800780907,-0.05054753118733812,0.3272698673424454,-0.9278284259837252,-0.4980865210145748,-0.7888950514956969,-1.1488128944875338,-1.383708535311068,-1.8263405771252275,-1.789520820150941,-1.0909405433634,0,0.890625
0.008638530942003246,0.4598689183149326,0.1636367045918061,0.7334327223814708,1.5518189612849775,0.40627604508555276,-0.321251363799303,-0.5716740220219837,-1.0831133714125425,-1.0871108086753454,-0.9410187875332003,-1.1416532565777642,-1.6259986254538785,-0.5031171484994433,0,0.8984375
0.14599111863681039,0.46826661137583253,0.9080266398390517,0.616295223442986,1.6163324508328998,0.8113957204826051,0.2010533472616866,0.07511881460122018,-0.9685539033251408,-1.531095759970379,-0.7735046238325292,-0.34656579055152315,-1.5650225133179574,-0.5173034640310127,0,0.90625
0.00957762931908002,0.4215745993709525,1.0726966051236964,0.45169622250358726,0.5231107741620645,0.7063191432066044,-0.21217643664101546,0.14408881552614905,-0.7216399432976496,-1.3451903605358926,-0.6635693288813789,0.15014883304379717,-1.316446228478625,-0.6626550899837861,0,0.9140625
0.15495531953046904,0.9496345946423258,1.1889936904585188,0.9044139672937547,1.0557320038276845,0.06670813612048368,-0.6556148956125364,-0.2593232613332554,-0.17036179921404265,-0.04975607801223852,-0.10407841166433036,0.536377027886609,-0.7575638617851241,-0.21995003633801705,0,0.921875
0.43655146198114664,1.2614040942316316,1.3824709591702704,1.1752879691025866,2.4075767410687794,0.08166390363249111,0.13158185925034804,0.16719971807361184,0.26832052086407676,0.5541880822466093,0.29826838642903164,0.6240154405058957,-0.5482311919478079,0.13782466091078904,0,0.9296875
0.617004098475135,0.9325545772258053,1.7351955510467316,1.0129121560566663,2.4335208156194765,1.1498476453394884,1.260732458154693,1.123106414239359,0.47441246960550626,0.3169126771881505,0.2832048857893114,0.7744888086860294,-0.6299759349304797,0.03175555759741971,0,0.9375
0.656554761343137,0.7415815224305391,2.0311991940737397,0.9410642905513391,1.816043861396786,1.8847490825368154,1.3773672606337437,1.4770701507317967,1.056348768147068,0.6334590360179765,0.3336855635122795,1.0656435648271814,-0.48374234242083525,0.06378718878970782,0,0.9453125
0.39882014418466716,0.8556738434553918,1.690799048354362,0.8073186454645377,1.7692011743192573,1.2584984383008622,0.8070011379054832,1.156845215350143,1.3475163001507535,0.6853701270584693,0.1794692508530686,0.6716919603190089,-0.5199629737336393,0.1926968236130064,0,0.953125
0.046801124630789025,0.806081628652257,1.1351169825510459,0.6236462391126488,1.7380600932469608,0.29296859600847897,0.38899985524258823,0.6079588154397018,0.5341177665664003,-0.26132815293808304,-0.5581666684219907,-0.10135347722266606,-1.0812779882293175,-0.11790784259284998,0,0.9609375
0.043762302583185156,0.8143512455086211,1.2475250400989462,0.9553220691437017,1.519755340262047,0.252813315669158,0.39131866989719777,0.24588642638632094,-0.3108004158080179,-0.695027037186064,-1.105061621158324,-0.1325363478557188,-1.5529917366123387,-0.6109700989431196,0,0.96875
0.07577593987587036,0.9663850592030802,1.3335328583199733,1.1915019241434894,1.3948476289921385,0.6351862575313131,0.7164464002260632,0.21710402331713188,-0.5195566591559878,-0.6544245491724752,-1.0815687022137577,-0.037276736075307564,-1.750251940411727,-0.8958867368605316,0,0.9765625
-0.3971080413854755,0.6212468817483063,0.4518308407752374,0.40612326140633837,0.5281182870867681,0.502765366234046,0.8958559793011942,0.20229093961083222,-0.5972010315490619,-1.4956935212504612,-1.3396009824194983,-0.8456077580020477,-2.1855401108377364,-1.1383056953717507,0,0.984375
-0.8787495939400845,0.07886868482921935,-0.3719236185344502,-0.3397533945898455,-0.5937680990068942,0.33496729899870276,0.7111093690370023,0.31626384154875936,-0.2211326204643502,-2.023680711283136,-1.8329557747404854,-1.5073481637744963,-2.5859683715225317,-1.193951825521389,0,0.9921875
-0.6999685477393225,0.38086715919819614,-0.20358676072905477,0.049493363001769736,0.16327796925605534,0.7791526074401888,0.5323675688574782,0.796536128476128,0.48762530744294624,-0.9703485247150868,-1.548261621565301,-0.9789905189412998,-2.2710021000755516,-0.7856192376586072,0,1.0
-0.31266849190604007,1.0485664018066285,0.09273994092677511,0.5809126748732591,1.7161126530724966,1.0476173703461793,0.26952024863300733,0.874181060695801,0.26829782296424926,-0.030944022238355007,-0.9405186882647212,-0.3345395680654762,-1.7652277479813514,-0.5018373416323832,0,1.0078125
-0.2776080667817296,0.9756869769194241,0.2509574676799037,0.6232897411776495,1.3488871682596415,0.45621724726513024,-0.4411886784445994,0.261147859198281,-0.5208041425587726,-0.5053941275649108,-1.1060052603723647,-0.41106553072018276,-1.9685855969408994,-0.8002815370896106,0,1.015625
-0.27063650980008364,0.6598774112566779,0.9332717590893749,0.7466799935756137,0.5587408063954292,-0.031328782499022066,-0.9557268008638737,0.06931681309092624,-0.4238182257015118,-1.2792748863830692,-1.4257846094196982,-0.4447736453271602,-2.398394200535408,-0.9985985837464892,0,1.0234375
-0.11663856018633814,0.8349830785569718,1.3443107969424395,0.6202554251250714,1.3319921241192807,0.4035917895116586,-0.47634386578453003,0.5287268237063246,0.21309144317163894,-1.3229820268293588,-1.0611422548421536,-0.1384008771682787,-2.186567161158227,-0.7294662108247361,0,1.03125
-0.21280353422582868,0.9930993504032912,0.6686029625884948,0.14313480891649033,1.456700935938684,0.8559381174177874,0.35111418143385287,0.48252391442050935,0.1369417010809089,-0.879452005570494,-0.8016187722794121,-0.019971960749890404,-1.7910663861588734,-0.6765683392309192,0,1.0390625
-0.5176914062250436,0.841929953804934,0.09195131450467986,0.3902468722485791,-0.03772170857661428,0.43362442082836894,0.2762117677571373,-0.39093697129705113,-0.7003168201405751,-0.7094978267994776,-1.3609547176072176,-0.19053172239587698,-2.0870073545921284,-1.0911328378594465,0,1.046875
-0.6583820530731276,0.6958237048251207,0.11088432892720407,0.897476690460995,-0.6167082316875635,-0.2434880179544403,-0.678819452584556,-1.2805412096560702,-1.4445616772203287,-1.3240224118632493,-2.158082997269986,-0.7070328782492219,-2.8461951492257946,-1.4353079569136242,0,1.0546875
-0.7448308756846828,0.46280124879468754,-0.46993755476147014,0.32869024138556835,0.013656947151693175,-0.372216792085727,-1.2285649303914703,-1.4778710602646703,-1.3917996023204902,-2.105861406884494,-2.5239016637022433,-1.4989664354299281,-3.188941220323628,-1.4759872495636757,0,1.0625
-0.9497184852112847,0.12891564092594723,-1.4704301164432507,-0.48622037624311065,-0.10638223505912353,-0.08272825727036413,-0.5162050201292364,-0.525643490646321,-0.49703514904116086,-1.9016598113592813,-2.3420257040706494,-1.8439982035729272,-2.8792501987082773,-1.4644766094283979,0,1.0703125
-1.098519503752839,0.014799122570721033,-1.7563468350259297,-0.5653788733223624,-0.8108136261280582,0.2910241860698542,0.8084440418535696,1.3176904076872191,0.6498429697588312,-0.8808434857280408,-1.9465671237057618,-1.7472648053640665,-2.620736627859688,-1.6715286195954402,0,1.078125
-1.1242254040432367,0.07350512985251946,-1.7454296736682768,-0.6215911885990442,-0.8764599736200747,0.49916350172606416,1.2712922142821814,2.328116948442355,1.1946284235357272,-0.2782780137078436,-1.990360760726554,-1.915646459787963,-2.9206196245399187,-2.027941712706702,0,1.0859375
-1.0398950114154282,0.23635880338260748,-1.822379314503461,-0.5199402736694312,-0.35122513815165973,0.07167357732873593,0.24480876969205212,1.189037883126503,0.5164675865904079,-0.47665557976298883,-2.3900122068827976,-1.9415599130166945,-3.204448983086031,-2.038385359670416,0,1.09375
-0.8158992974610261,0.5523466671939302,-1.320962505840618,0.36608645131251766,0.12090586944512437,-0.8245934082615541,-1.1614519476161094,-0.6967175461321526,-0.9376525476972309,-0.992978571445136,-2.3364194358463424,-1.5061887228323696,-3.045544073626242,-1.6263897771953724,0,1.1015625
-0.7648015527035962,0.6184039350418984,-0.7784023369207413,0.79570541678924,0.041266000045437554,-1.1196051806257856,-1.6433381812866381,-1.2646113152542282,-1.7948436979500977,-1.7323950812090467,-2.1560564206615345,-1.6157484402175923,-3.112385784339275,-1.5355127056790532,0,1.109375
-1.08408926939404,0.3363702953882402,-1.2144564874006463,0.031512536045413944,-0.3821258741608218,-0.7270233138917104,-1.7366763824764717,-0.9228196308008966,-1.623627086899263,-2.546568253474803,-2.7427522451966095,-2.1514818752696145,-3.5950722233719956,-1.9885448174798952,0,1.1171875
-1.2839359826595487,0.3153888367907416,-1.7884714298115911,-0.4244435825364607,-0.3645739455386277,-0.7807111676372288,-2.2330675194098113,-0.907313368213069,-1.3455058314120611,-2.6852395501542565,-3.346032187893461,-1.8445665775454805,-3.7604462173712943,-2.2515643601822832,0,1.125
-1.1523325866545253,0.5087664821746339,-1.637583872228028,-0.0651873077693462,-0.1332573144664579,-1.107415036331183,-1.9820062223462773,-0.6895241716204026,-1.2951445313016725,-2.255987549466171,-3.0676724142108736,-1.324358616250827,-3.744202033943473,-2.164632728156474,0,1.1328125
-1.1965431298056683,0.3465502079197612,-1.5760842468794252,-0.09321714437630065,-0.5112957336954258,-0.5814110741076984,-0.5776275823595199,0.13782914670760382,-1.0697090074897844,-2.26086353619846,-2.79239421890727,-1.8157777000873958,-4.080037640489033,-2.270066577156809,0,1.140625
-1.4357531811372541,0.2038854435366074,-1.9205585558597538,-0.4159534632100567,-0.955116607644074,0.16173060907985418,-0.1300115619298128,0.21394280148735775,-1.001877319852453,-2.4575149616499656,-3.065734183542374,-2.395024883894146,-4.231648559070184,-2.4316911703610096,0,1.1484375
-1.3763806255472546,0.521504480444361,-1.9101795726223623,-0.20399883325972554,-0.6289510472973109,0.22998790184944187,-1.0257159077016316,-0.6829931003653077,-1.1459463996296881,-1.9734558663229962,-3.1592166271286075,-2.1650709442305396,-4.0573991118354,-2.2525915444577462,0,1.15625
-1.1741823496121335,0.6247641696355181,-1.675431206429719,-0.0724270325533976,-0.1782114063712499,0.5318519498255144,-0.989095489741782,-0.5867914808946494,-0.49469095532193763,-1.3954928497113035,-3.096130892174042,-2.014862466894215,-4.32856364612809,-2.1065284070304577,0,1.1640625
-1.2103201314032046,0.336590640194551,-1.72868730295475,-0.2936465780371704,-0.08903880614803147,0.9213644888090703,-0.19398760378751984,0.5066404220851689,0.38703165051056404,-1.543451513452935,-3.3282712208051892,-2.3555105523918107,-4.695242095683455,-2.2687554273343418,0,1.171875
-1.2281351644389087,0.5788945960324458,-1.6131661578942724,0.21152096615178678,0.38045184606574495,-0.07510909424011301,-0.9218319803650736,0.15230665988583159,-0.2833347612320417,-1.8827748681095673,-3.4419822850255404,-2.5304892792012486,-4.396702325016812,-2.3593493518553923,0,1.1796875
-1.0431733908133256,1.1824040010001857,-1.2316733994615796,1.0956271759641132,1.0752876781849776,-1.272199445849627,-2.5306734544135674,-1.2461872735445747,-1.3703190017348694,-1.7442575931660282,-3.2460084060927974,-2.545522794049655,-4.083972562500853,-2.318396785752065,0,1.1875
-1.0317478280550874,1.0449654652462852,-1.463442754346792,0.8559320783360794,0.9151631429918952,-0.7420786519250248,-2.8568727865712624,-0.9332608722748399,-0.8371326495927585,-1.4715367313263172,-3.176442456313924,-2.8648743011957447,-4.239312874420686,-2.475213429659631,0,1.1953125
-1.3489821870725371,0.5891047071997553,-2.359068849725725,0.011744845204104433,0.3979482252435592,0.1430105384652415,-2.1340945229762354,0.2591531105611027,-0.35066901525312566,-1.806030685218379,-3.3251301166683853,-3.3431181069294293,-4.290746777314488,-2.786693018012899,0,1.203125
-1.6058135470345622,0.8341502462553555,-2.830049519164446,-0.16889432540075397,0.647165236305698,0.18121443328445844,-1.2605630001403767,-0.1988523900726474,-1.4212528831891447,-2.578553005271535,-3.563144922785181,-3.4901383163051083,-4.251630908653842,-2.9801127270033687,0,1.2109375
-1.523632697825019,1.1410655706795478,-2.4523820626205324,-0.1985160040867488,0.9370133050796006,0.6709814839958255,-0.15612246387603923,-1.1249445320376967,-1.9747129150575167,-2.712175992965765,-3.792802256048365,-3.140395929167769,-4.42432329080659,-2.92298125446953,0,1.21875
-1.3715361325147404,0.7574513183832863,-2.0309916679501034,-0.5524419398062814,0.3017985363225982,1.304854268201482,0.35465599057982655,-0.8240949405195193,-1.3336531602786752,-2.2353850823731434,-3.7994053160620944,-2.72177200965675,-4.369161304922579,-2.694613882332796,0,1.2265625
-1.4427277124643174,0.4912176220404244,-2.079594156414332,-0.5060948019044175,-0.3270218024990598,0.5785407221366484,-0.4077447775209616,-0.4691924857903198,-1.1334795891371499,-2.194242667118871,-3.5618582754903563,-2.6325023602207485,-3.932469983569742,-2.578877296494643,0,1.234375
-1.4094579550897233,0.9236754257303671,-1.921289881237701,0.07447128258956293,0.14558997573576404,-0.29957302860363655,-0.8072788626657721,-0.3050899200048229,-0.8004076731004091,-2.009208585918095,-3.0321856383332744,-2.4163575638393047,-3.443281267838379,-2.552823721659244,0,1.2421875
-0.974402704800586,1.4066186604327648,-1.2191873484779285,0.6683604375394564,1.1199353314406058,0.07907388227680869,0.0814651464725625,0.8304253306669931,0.6438600145843515,-0.5962052506965332,-1.9784320102399835,-1.643358053978123,-2.7539810175383588,-2.2123075790433337,0,1.25
-0.6097994399612373,1.5325184208318543,-0.8456614926453447,1.1901215720891534,1.5999513521309774,0.4915817170653753,0.502952006518208,2.028410978948967,1.6744500030671512,0.7467703460914291,-0.9294933035935484,-0.9200875057265944,-1.8866270609128124,-1.6940438623990044,0,1.2578125
-0.6284144086608319,1.5581435395063923,-1.0053330828334148,1.5837512071939315,1.683366362980428,0.17950787412598196,-0.036753451860467856,1.9219549567717957,1.2706731525687471,0.5451567869804079,-0.8199733333883383,-0.7429112194635443,-1.5692907006308516,-1.596855289220399,0,1.265625
-0.6296802061022019,1.5951746875296624,-0.9284828956074994,1.566856313668596,1.7270218103011081,0.06417721525282574,0.12012339827707329,0.9832184234128725,0.22536815572254204,-0.21319249265546159,-1.2806872766093034,-0.7010302903008344,-1.8654913460248808,-1.7992613266910473,0,1.2734375
-0.4415149125952916,1.5989099153931094,-0.7537012740189474,1.2092714076893984,1.7249958833071397,0.41812713304453425,0.7953429583922614,-0.12011413656328393,-0.6540049316474531,-0.2658926895570527,-1.1688007731749073,-0.4893395240504164,-1.7336915999622557,-1.5946808118927056,0,1.28125
-0.21450822523378738,1.6840992942348239,-0.7921610606027351,1.023155238941771,2.1185330422840956,1.0398845846470055,0.5678477574934594,-1.040474360777966,-0.952113449192683,0.1050665964467897,-0.5208652085310986,-0.2495878778400783,-0.7873187000791875,-0.9732024982712457,0,1.2890625
0.05271794252501423,1.9143946719040712,-0.36210962280874387,1.2965943564255888,2.9447937593413434,1.8561030844570083,0.01986841376133185,-1.4716271205817413,-1.1277059120412156,0.20516085926815966,-0.19599141410431434,-0.08565119947888904,-0.010237847113519518,-0.6365705184339512,0,1.296875
0.16295812175073882,2.003903115180731,0.4483432936361024,1.526713942252845,2.7385366330878838,1.8423733688344466,0.024227595038030143,-1.8520441998617836,-1.8620702705669865,-0.10760616365201496,-0.1896634588799036,0.02762374782968271,0.05902035929534053,-0.6772319040324946,0,1.3046875
-0.01158826063727894,1.6802501947888873,0.6794915184393251,1.144838806194634,1.1252619513057973,0.4989346348682233,-0.03340466165991697,-2.1957838151960387,-2.1065772534696916,-0.237185994173831,0.17368139581985356,0.3658668207213044,0.24043805039012744,-0.44394434409012135,0,1.3125
-0.04336269475254654,1.3475407455065829,0.5516856678770423,0.6119730992874683,0.2543032292368111,-0.4762102155759526,-0.15139367311795826,-1.7609962105033758,-1.0964717634998178,0.41220010601772267,0.861796617786978,1.0212561454408466,0.9632771500478996,0.08853946037897231,0,1.3203125
0.1971026690799232,1.4676199875438276,0.7035314024230165,0.64970072066321,0.9170101292280839,-0.19136434868335123,0.31853797508215637,-1.1446949973421818,-0.47080019515117416,1.1548628905461766,1.220609915792742,1.3351729149991145,1.4750741501881761,0.24336597825393036,0,1.328125
0.21144788712638415,1.4679917850913813,0.7427437370355076,0.8654034205647011,0.99834877690311,-0.18843203308917872,0.7782898038262059,-1.239226206131917,-0.972248620232524,0.8409128611830771,0.9864035804688706,0.9404877765724722,1.3517693948324827,-0.06903449505213288,0,1.3359375
-0.12540417333673298,0.7582186045003275,0.4069257440398863,0.4757896689743359,-0.17921897980989773,-0.749927651140894,0.506466417315158,-1.311501704909968,-1.3244937417185298,-0.3922565785396417,0.2716081625963464,0.39057230267207793,0.9692340504921126,-0.30194777091643843,0,1.34375
-0.336626575565501,0.13093876646600372,0.17888964179465006,-0.20515140446859798,-0.5231453283106191,-0.35892314704942396,-0.08844402188440256,-1.3282246258447705,-1.5665095644778269,-1.420599988383767,-0.43448461212836376,0.07919615764520643,0.823503799846098,-0.1023825749624701,0,1.3515625
-0.018668665281344858,0.42818549648163445,0.37362112762930505,-0.2609081392098073,0.5741190178194354,0.30338117999850006,-0.5798818704252306,-2.2398668673433426,-2.113925357294379,-1.1395004927519354,0.08218437898898488,0.2892650518110067,1.5516349321065106,0.4931641833067371,0,1.359375
0.7022725498545742,0.9652367784553473,0.9669643485102871,0.29803143171337054,1.1215456920074358,-0.5585286970698767,-0.7604082495183782,-2.863424332679104,-1.5813531276106914,0.6755848656965426,2.0509050738127015,1.4416043369735472,3.159643965242395,1.1288942078910367,0,1.3671875
1.1579881709816815,0.7961375947334065,1.5478788194726627,0.6082616506825577,0.2592460786994298,-1.7560384221089966,-0.3132160068831941,-1.9121007296800543,-0.1020842106603576,2.433498570731117,3.412105962746033,2.6240636545194223,4.244250777416868,1.430073159112839,0,1.375
0.9444451554617209,0.20589069761667064,1.389657425389177,0.36670725497630946,-0.6495411388185514,-1.3758062887904623,0.3818951232313059,-1.0767722344559245,0.19329323318640274,2.3889281534728215,2.9401297329312963,2.4443679996466825,4.013410513089821,1.520742079031997,0,1.3828125
0.6046775056741897,-0.17791576983872975,0.7497242543818741,0.09671450187221928,-0.7041689301585403,-0.44446886311828787,0.56037479283327,-1.2176677540760799,-0.16154807889238051,1.3879564297917606,2.2969447917564776,1.803432641882137,3.6161389971084943,1.7853257881145816,0,1.390625
0.6689841551691637,-0.44211090090876,0.7125755385052267,-0.08747926089010177,-0.5504832725363578,-0.4336310560177482,0.208484007387271,-0.5940895176454406,0.6087984467989102,1.270684976451223,2.519184935864806,2.1708032841569174,3.7214779112639818,2.1141339231550496,0,1.3984375
0.7252116920703601,-0.8231215787171343,0.8967810506438704,-0.6739481864945384,-0.906886549658049,-0.7465077191360785,-0.37545891992562025,0.5483654001722165,1.2572885228430868,1.7504887351467928,2.386873130230185,2.485401160608379,3.5681421558953503,2.066918039250601,0,1.40625
0.39862815158128995,-1.1833173601080866,0.008560557806023146,-1.3812908043260708,-1.431074355491929,-0.732792722300667,-1.0003732177064344,0.36313367709004807,0.5347401394020468,1.6188781370364909,1.6930667702640856,1.5127338572265494,3.261594579117324,1.780371154106823,0,1.4140625
0.23792172646501586,-1.3348028859266394,-1.130740836441706,-1.2766164721899038,-1.2523167493072516,-0.6831366678061506,-1.1991584534193387,-0.2766799035446782,-0.17776894133051174,1.199054427376693,1.7952671996210814,0.55829722140849,3.654183616631272,1.8304652756413282,0,1.421875
0.7970998172692845,-1.1623772474719543,-0.5764451056370784,-0.4576823265604787,-0.32535472624442074,-0.5307860707438695,-0.9176530212183859,-0.04483643903313738,-0.17388225734440432,1.6165478341495152,2.9007711076708,1.141414355004618,4.333274774680155,2.264448616322125,0,1.4296875
1.6828149681966398,-0.6600842155308176,1.1670074294762443,0.21717233333758346,0.49099181725181984,-0.11322843429369801,-0.8184833469353582,-0.1573367342043567,-0.034134598018869984,2.842713818749755,3.998092026089217,2.7391577858237186,4.526039524760417,2.683059339044063,0,1.4375
2.06433549367129,-0.22998461640384105,1.9589770074770816,0.4856589231433822,0.7369292126169796,0.14499387739743685,-0.8948368933496416,-1.0168597710943612,0.463134011733946,3.5441552587831193,4.348921644568928,3.7676568919361912,4.489225724879874,2.85228539265559,0,1.4453125
1.738984884233891,-0.3579257396400624,1.4785388746889927,0.31906925700012406,0.6025028760995849,0.03241057457856802,-0.4732180029970613,-0.8934740083409589,1.396570803490938,3.057288688756892,3.9188949649731164,3.3028138600773853,4.506161600518918,2.779095642805884,0,1.453125
1.3297432035514098,-0.874367168174987,1.0527890520519525,-0.25384305490578124,0.22298434892396096,-0.11997893012788734,0.13128118876587183,0.45709345918729943,2.1080832166524455,2.5702741944165326,3.5854729903296794,2.2402743667617218,4.453082892658751,2.79621463869301,0,1.4609375
1.2940465408159523,-1.287955933796902,1.0421669583283149,-0.6176929384664778,-0.36314953779835535,-0.15496799006408274,-0.06158077619503971,1.4097874003010358,2.2217202899925157,2.8879567186033612,3.9432405206248613,2.1534762564295504,4.513424911346301,3.0989325864068027,1,1.46875
1.249652860827768,-1.6491722829572355,0.7252511789336052,-0.6504713863443119,-1.1723669123503813,-0.49855888528375514,-1.052342624041102,1.2548293222723856,1.3821036821285764,2.7010665335229853,3.930147069286468,2.6025105048852835,4.685136822536337,3.123147883300315,1,1.4765625
0.8861337912381538,-2.154139180551557,0.16773612172906838,-1.070891552653021,-2.0971713522851827,-1.5752113031603496,-2.041661880905287,0.3735886644595258,-0.3529649877471487,1.1095732031034597,2.9162082101740907,2.1684408999384033,4.4465300080986205,2.620784914177895,1,1.484375
0.6806163131021031,-2.457386351434059,0.15838480932388752,-1.615410525890853,-2.5030641049161693,-2.677108075737594,-2.446877908094104,-0.9653776871119315,-1.9418606316317335,-0.5678678173309967,2.185919853857902,1.4140796036156396,3.9456800499569007,2.3696353712611766,1,1.4921875
0.949058535828706,-2.3214198732832734,0.6120108421717201,-1.3602934148652486,-2.151151167137443,-2.6455455263708263,-2.0990010644383807,-2.4899953541441926,-2.869834780688135,-1.0606349279812335,2.407714654212301,1.5328083138552175,4.021821994480136,2.6944569801519815,1,1.5
1.2413537482271402,-2.0734000241573476,0.7918034764100798,-0.7449653272847463,-1.8733127819508297,-1.9969148088140232,-1.4113158191164976,-3.407500193970215,-2.984181890222384,-0.568903009124103,2.8245265881663273,2.051206051037921,4.609642897052226,2.9944844026367585,1,1.5078125
1.1711070211363435,-1.942142828626456,0.6078534618170632,-0.6679969349470849,-2.065256118059728,-2.0547118073042796,-1.0838916202100006,-2.5840312380827952,-1.2750295159819889,0.43584654265949546,3.1510923233762886,2.1592053888266163,4.8550042173483945,2.97163354321802,1,1.515625
0.9680368924581165,-1.9305697329147384,0.47859207040601603,-0.8295013385587221,-2.080678978340151,-2.35726322955579,-0.9811408467212497,-0.13601490250838968,1.6240531408446242,1.5578478553321995,3.45082714829541,1.933861533015366,4.730750663089011,2.8553526980677657,1,1.5234375
1.0436736499293895,-2.0409402354043933,0.6642474816762669,-0.7165744257434311,-1.5691071676462742,-1.6818237310863022,-0.40963987652582273,1.7343604206424545,2.87062267948894,2.2869302172600565,3.496287026666031,1.6823393227773016,4.851889250095111,2.8678648322622413,1,1.53125
1.3701406179645514,-1.9774853982885459,1.0171009681853962,-0.4320657755584844,-0.7729542378244618,-0.3663505345692819,0.3563609834994314,1.735056059462839,2.243477743721311,2.6263952581430003,3.3939007081545016,1.6703394400146638,5.092184681554346,2.9459903985639335,1,1.5390625
1.4434919732802272,-1.560360502580221,0.8719645097130949,-0.0825848764717055,-0.1111238913783483,0.5414647697379368,0.3778283904853329,1.3624336909303947,2.170910939170265,2.7978274443750304,3.309420597235903,1.884224035299676,4.965082735490079,2.7825810364013583,1,1.546875
1.0993696751812954,-1.3080541951632578,0.05301006547488742,0.10122230444842642,-0.14250809606876821,0.7323025409688383,-0.36819065028628434,1.4245155010942712,2.4434749114526024,2.592915476515523,3.1365847119595838,1.892905121008642,4.759717602000417,2.5051382933448116,1,1.5546875
0.8890665963985939,-1.5265122799973676,-0.326001193849531,-0.24407723471242077,-0.7916317628688392,0.24184456372112595,-1.1348003787386869,0.6742847330321579,1.3967814471263262,2.0508885616925774,3.002376153430458,1.6636828938493478,4.857280403589999,2.5757927042165196,1,1.5625
1.043333218883381,-1.7741450240174998,0.174860226762813,-0.792709557757452,-1.320568394863889,-0.7523328176440944,-1.601074242554739,-0.6789868401961143,0.24122134216365843,1.6600284772409606,2.9410389431601374,1.4926243783632476,4.883496181905575,2.6793959233196314,1,1.5703125
0.9866371784694584,-1.9433281064880066,0.13815856681460095,-1.070458774223674,-1.7945103244828104,-1.5755837789520752,-1.733323902003171,-0.9130890206964006,0.49076916756317157,1.4403516407297425,2.624047077003065,1.139415193184269,4.521623929448066,2.2703601362227617,1,1.578125
0.5662623358764007,-2.320665620806798,-0.8056570488963225,-1.3826334142738197,-2.543255490783764,-1.6269839259224144,-1.256286347320681,-0.04923454150789103,1.0850746879251585,1.0926503461120396,2.2038208277888622,0.6417621051660838,3.9951814742583935,1.8898055354411416,1,1.5859375
0.5005356855857579,-2.4807920109547923,-0.8412074365563186,-1.7840487051038,-2.5262400472354383,-1.1593260892043296,-0.4465194796180129,0.6555099420785703,1.300435403029937,0.9507890262552764,2.3263935392407005,0.9671861682352371,3.6831857406243027,2.233001857000327,1,1.59375
0.9773456106149532,-1.9895935482414435,0.290326165236528,-1.622406261186671,-1.1850649167522636,-0.9308096154124954,-0.29545425248875473,0.8992610535114355,1.6480882802691643,1.4090880523331386,2.8974366662060467,2.050991232111995,3.872664188196697,2.7226520167204993,1,1.6015625
1.1962288763218163,-1.633892929410994,0.46333958981451473,-1.1752432853162207,-0.287400002475327,-1.2389618225610093,-0.7322737530332853,0.9309195353543506,1.5652364589776389,1.6378247645258268,2.916998058086791,2.173128482323006,4.154152707160161,2.4209039090941555,1,1.609375
0.847337402528733,-2.0449127362232007,-0.5952032836607797,-1.5145231405836364,-0.8847856036026069,-1.6714414079594695,-0.5139299281306402,0.7284126636146836,0.6653691521559373,0.876132024798075,2.1251708323235405,1.0838635734871176,3.8078505983399014,1.7445389372810545,1,1.6171875
0.6468874237881597,-2.3912334246281595,-0.9055928827247871,-2.26802798504544,-1.4002877240328853,-1.9074723668094116,0.30637407686459206,0.29447178313569566,0.2025367354430099,0.39834500319931576,1.7192862264464188,0.7612686259723842,3.318104807413471,1.8772912808065152,1,1.625
0.9424746612795787,-2.047912220479588,-0.3171548309046046,-2.172257203875617,-0.9015893450372235,-2.108977066227553,0.4010508163692853,-0.18503062530583272,0.5165830704760979,1.2431954852273153,2.382682026543217,1.6071083459196454,3.4844103434329994,2.616706781165962,1,1.6328125
1.2095121129861004,-1.635353915389938,-0.23723629181862893,-1.5505499419954392,-0.3615729044795241,-2.10401684597876,-0.2052786555572123,-0.40210962795365934,0.6645263670970692,2.0477246485762564,3.1399547125795024,1.9443894724041397,3.827006585338703,2.7960860225762754,1,1.640625
1.2200082391681677,-1.5411504168488335,-0.3570354421669098,-1.486609538804863,-0.206073126471797,-1.4376154688491751,-0.3251612498517262,0.06336846789963621,1.088676616672861,2.217391683952889,3.3333126662669774,1.7892754666118846,3.9534733424579214,2.596100957374814,1,1.6484375
1.2378017961206398,-1.5332068462572848,0.12607786577344687,-1.7827638285050709,-0.35423397862272205,-0.5957094371802604,0.20921858607165983,1.3335432292781564,2.496977480303549,2.978813746010358,3.5183487653419405,2.3309082170383744,4.209822317034077,2.7519553871852884,1,1.65625
1.1788707066201085,-1.6135161250630725,0.4551760130507556,-1.9483416128283804,-1.0439881381847136,-0.34535603909029533,0.7565878591672502,2.6940479650741103,3.5193386282392662,3.77187699001759,3.7663310284447573,2.777159753979794,4.288615595516486,2.737224050186584,1,1.6640625
0.9901353566015334,-1.6434718775425796,0.37430433559859166,-2.051855773800813,-1.3347188750922725,-0.13709993608567983,1.2088155270134615,3.110089175764822,3.007941428373469,3.235946671620949,3.5950018122266654,2.2635509884350453,3.9036856320438353,2.316495482709451,1,1.671875
1.075031433460399,-1.3345673011311288,0.6716060738379299,-1.799571161291129,-0.2521395261077532,0.6820034784633418,1.790769473291904,2.601152427653702,2.255226514844582,2.5558926846249883,3.2851055500738586,1.9265714180594509,3.647794432029847,2.3142295824050896,1,1.6796875
1.3095874623652748,-1.143181467852519,0.8977496238817375,-1.2487377828231168,0.49204326948522364,1.1265232049724294,2.336934499580775,2.165050724072015,2.49068029553337,2.8935625719156532,3.1683061115408164,2.0830992433254756,3.5757039685110352,2.535569820389202,1,1.6875
1.0768042894858272,-1.5159359844747766,0.4071936959167438,-1.3242386193897702,-0.7384661466365908,0.2511450858578104,2.4563579234306347,2.088523854889534,2.649760308613342,2.9915160878057505,2.7655248736284754,1.6731237837253066,3.1551015256041484,2.153070694878591,1,1.6953125
0.5825819934920586,-1.866045393765196,0.06494402912670003,-1.932127688331827,-2.1081062741575325,-0.8084791801571924,2.1357109652335704,1.7783916539423046,1.6222925950400886,2.075193425076632,1.9516433130183033,1.094222564969939,2.527552649813594,1.6515988973317763,1,1.703125
0.44817577466453973,-1.707018814203816,0.16193777464064668,-2.0431016276107328,-1.749503446253019,-0.5619292386421051,1.7730650941203843,1.4007141685528142,0.8108125369410647,1.2877891895021913,1.51134965475462,1.2406616882210253,2.160698545109691,1.677633662160425,1,1.7109375
0.5075889892454875,-1.4413078911366661,-0.10912898247736028,-1.7347749848341525,-0.9722516985154421,0.36770085751523085,1.6627214936799941,1.9288283818190914,1.9826425880402647,1.59961073326996,1.827572128019761,1.4750853910604604,2.2629960444550736,1.7671567219862616,1,1.71875
0.3905836026988206,-1.3272225513541809,-0.4953819750036198,-1.6306134568995196,-1.139538279848732,0.482881335836516,1.7472199864128826,3.1177310043527484,3.734833411584345,2.601499126378562,2.2539087293420015,1.3960789987595312,2.670381905307473,1.6265359369600871,1,1.7265625
0.2647029562943118,-1.1657233498419475,-0.32273440959638194,-1.5945430164941767,-1.561123771487921,-0.10357443791909678,1.6591231763023953,3.1451287546976294,3.3032167383729414,3.007065932425225,2.218374039724771,1.490281837380486,2.7301424211845515,1.595945376717557,1,1.734375
0.2335278579100054,-1.0189264695903706,0.013884585124032737,-1.4668207656155046,-1.7642597126149142,-0.3298434412396082,1.138625917524917,1.5935952804460851,1.26875721078206,2.144597181978676,1.9069057070373179,1.464097182217484,2.235083915755036,1.630506754249871,1,1.7421875
0.12325382739908079,-1.0901413109357818,0.10641162992792039,-1.4929296442575877,-2.0360699426006197,-0.13112414831316577,0.8175774561682717,0.786225117547456,0.686432411730029,1.1336772933143942,1.561235771022796,1.0144386349467338,1.838319759290444,1.4241534953706778,1,1.75
0.05534669322652136,-1.2170266319249017,0.11785499265951405,-1.62638123591802,-1.9718926871671332,-0.0998208207844977,1.357347772334639,1.7664501555580778,1.8484533614127479,1.2768270830295867,1.2844114686651464,0.8287858234027193,1.8052136101812646,1.2043864954568961,1,1.7578125
0.2287543041198422,-1.1564002065196533,0.060099624307781964,-1.571485372421772,-1.2899498325030196,-0.257470749435185,1.7779339595570285,2.3312144466853764,2.2825954887667037,1.9557091764680148,1.3795599979564694,0.9171066308258699,1.8493252454496607,1.3094539230806579,1,1.765625
0.3626225278583082,-1.0557107108420136,-0.06184506154573249,-1.4581659734615224,-0.7704274202351804,-0.25152736084440436,1.2083241953455865,1.7511466866936818,1.6553465547484778,1.9719028071847824,1.5708884607027227,0.5020026694614842,1.9092450562474537,1.4102591750234101,1,1.7734375
0.2558614831465768,-1.1499652050566331,0.033393849404654646,-1.5809598450183127,-0.7003530612248157,-0.056112167067973506,0.9480620310909587,1.9067022664093283,1.6096476080831008,1.4932591680137757,1.1123595582930752,-0.02135774745785605,1.8303357219557252,1.168061831013406,1,1.78125
0.2638550625517812,-1.185949415326313,0.3515949025616031,-1.5835878090301891,-0.37047304572709555,0.09558269107908514,1.6127292464933747,2.384626224268278,1.7278087655319663,1.1835610905210792,0.48806299498256334,0.2413164746932065,1.4211874253074839,1.0017181469156942,1,1.7890625
0.4248103785687882,-0.8562347496772683,0.40380227596039175,-1.1400568271582006,0.05869667113812963,0.16073573769598637,1.6099479743586935,1.4765272585921871,0.93855352191333,1.0363997784979295,0.5070447120001342,0.787251541200586,0.9433988351664663,1.011676667242953,1,1.796875
0.22123597274758608,-0.5495808560543528,-0.03208288952086309,-0.942549272535731,-0.28711721109965016,0.2968300533182963,0.8214313747775963,0.6077517536814,0.40362924717893106,0.6862852125635858,0.2668272054901796,0.6642757102557765,0.3942896687747472,0.49689024842004,1,1.8046875
-0.27135571928355845,-0.6070123245756576,-0.4021472677015532,-1.2507284049041347,-0.8248081280245462,0.38957241283687644,0.8268455994070195,1.2658683248116938,0.8825193678164447,0.05736240877474847,-0.8278722790692835,-0.025212756949668964,-0.5283150091780432,-0.36765255772379024,1,1.8125
-0.4171629592454209,-0.5040038876382361,-0.22799264203354142,-1.0404468916975274,-0.40244823584636435,0.09526028246805636,1.183032272753133,1.7832452476447753,1.3026741908692818,-0.21534658724556874,-1.3467958081150408,-0.7091375906838874,-1.2942277495600347,-0.578919913085041,1,1.8203125
-0.23704402587446122,0.018635130452152027,0.03335343534242998,-0.26369673647750475,0.27288910342835704,-0.40429691048820654,0.6583333779593694,1.1158331991335302,1.309033598373805,0.30673874023599923,-0.7816729940841342,-1.0796722855636596,-1.2443136367999315,-0.4040620459793217,1,1.828125
-0.25591959049984714,0.261756468023995,-0.21787653804683785,-0.16321424749219138,0.0281541281620795,-0.5857236993075344,0.007644612248006928,0.30394212791015046,0.9135454155605525,0.49640525255513956,-0.701722564241663,-1.1563584397105058,-0.9900440694052545,-0.7509279853941913,1,1.8359375
-0.5090256811781132,-0.04307748304741967,-0.6150305713745886,-0.6928713665903438,-0.4331725636900462,-0.5885000160364042,-0.24266918832123693,-0.3709688443857729,-0.342914686224853,-0.7154848746021186,-1.6388597068823332,-1.2775967723837875,-1.3242308994987888,-1.144928375647649,1,1.84375
-0.6181977368397601,-0.22011673592212197,-0.4544666893583473,-0.7463513987043565,-0.028936541821268383,-0.7064322300616013,-0.7798712991209702,-0.9423817014730658,-1.2632391487885586,-2.0217030685879505,-2.282898742346456,-1.4376338693296384,-1.8140961662978117,-0.8487531023288652,1,1.8515625
-0.4813119117432805,0.019153816536516856,-0.06805677355812065,-0.2909928327764391,0.7002134104241257,-0.5370793522856381,-0.9823195592816246,-0.6404233360398935,-0.49251283921229844,-1.8110212391183327,-2.038900968331346,-1.2246503752587525,-1.8128944228510964,-0.5359215561099949,1,1.859375
-0.457516571378039,0.16291392731348667,-0.3802829429361905,-0.09353690258836929,0.6401448479054075,-0.09037618346975525,0.03262798477593745,0.24195637491039396,0.342800190236952,-1.0496474847311803,-1.89678945617204,-1.0538264580127366,-1.6938515250588786,-1.012594606062076,1,1.8671875
-0.7852438570335417,-0.026633336895791462,-1.161969841605472,-0.45437362470598786,-0.06725400556163329,-0.06530529882614526,1.039759039404083,0.5678173966786692,-0.27857374490700526,-1.3252998032630752,-2.477250352457076,-1.5766018329871252,-2.0653571693959334,-1.7270324548657976,1,1.875
-0.98175415755678,-0.07233269777185372,-1.228527649823938,-0.8404518830751602,-0.09888377098911891,-0.24630178986513612,0.9055872917951266,0.40608430118207606,-0.9429196562374844,-1.9257878097606804,-2.7244085945690273,-1.8999957019418616,-2.4727515661233954,-1.6472092356141377,1,1.8828125
-0.5502332970837622,0.3227040659681154,-0.44776302482695834,-0.4437618962358745,0.9476274652367938,-0.0015500426930580298,0.29712543451736123,0.3064471188185155,-0.4843181334249657,-1.312355181239819,-1.6945035877365757,-1.0703206782319263,-1.9413309591206862,-0.806838882595682,1,1.890625
-0.015353342292952904,0.6668785244343608,0.0671986013560583,0.41250414210819075,1.4860736317575918,0.18894899029876833,-0.2098294934859285,0.3203729757251766,0.39350434284582725,0.15747828207645265,-0.4483220102314582,-0.16330728185014545,-0.7984221225292867,-0.25575595053329114,1,1.8984375
-0.10191448906572821,0.4837465482808688,-0.2548100883111177,0.4477059308805926,0.47386278859423814,-0.21923453943525492,-0.6822664579780031,0.4786984006080196,0.78163130323942,0.8437012452481691,-0.36877302131248973,-0.3092867773559029,-0.5317498110330662,-0.5575443863617616,1,1.90625
-0.47938680567176506,0.13284002836421893,-0.7768881344999089,-0.3450528019006814,-0.6242564860608264,-0.8535083336358864,-1.0157616448791729,0.2729085114059778,-0.029262447401479635,0.1867942548172755,-0.9895350088470818,-0.8242554352313428,-1.309931217738521,-1.0278186462500327,1,1.9140625
-0.4605192707129315,0.19955626085335904,-0.7230752101434927,-0.603454084394239,-0.2686887321771602,-1.036945830254873,-1.1599166238561371,-0.831046278063024,-1.5473664292614686,-0.7074698227420876,-1.0888094562355821,-0.9201953562690898,-1.5796993525523335,-0.8573012730816324,1,1.921875
-0.17658059915499386,0.5135529766088355,-0.26579861589182036,-0.08702118439506326,0.7199405579232527,-0.1497183555670793,-0.9509167621202267,-1.5597154879192354,-1.6626630933484174,-0.7836378431609199,-0.6727839982710313,-0.8339806614644244,-0.9185302226391368,-0.3929386175483655,1,1.9296875
-0.21317080494131704,0.4291079258680429,-0.29272012630779687,-0.01409517022670766,0.736757239977484,1.1371993564889005,-0.35176512125525966,-0.6839968520753723,-0.20370431309805395,-0.528645443337965,-0.8137421282712867,-0.9510637847785058,-0.8081151633298178,-0.5339455645120954,1,1.9375
-0.5967943281552208,0.002341474140183626,-0.9906101138439569,-0.5449029474468565,0.043861580046606854,0.74008611933578,-0.34748646201598027,0.21733357913519205,0.3031364670403385,-0.7894119004118056,-1.7444521790532035,-1.3712261195020798,-1.6534579159629499,-1.1008552608991962,1,1.9453125
-0.7482056725662527,0.04885842732882114,-1.3863085127602826,-0.32985988603367666,0.21418270716058946,-1.088631127349495,-1.4044669364967255,-0.44786137241826196,-0.6194080096921777,-1.0669680620752777,-2.1149149531806524,-1.7032658073320392,-1.947266077687142,-1.0892752613964762,1,1.953125
-0.41719363289312894,0.6473903621347715,-0.8290901176756464,0.6755915813131654,1.1995322575850673,-1.4444919306818311,-1.98217734438116,-1.1464502195107127,-0.8688919079649033,-0.6438083584739693,-1.2509231843417488,-1.2448301159926767,-1.2529964266096256,-0.5588342584247387,1,1.9609375
-0.10884062314805842,0.8083301663395136,-0.001082604189968437,0.7954792202159902,1.1826799222969364,-0.26762812543974573,-1.1552982239694358,-0.31155631543717993,-0.15309209749467917,-0.1093404703145867,-0.5599319033926496,-0.28303305304698256,-0.9397827309604311,-0.49553823451011264,1,1.96875
-0.32687956046674627,0.16463008363277964,0.00374306865029553,-0.21062045695581225,-0.3673955813870107,-0.3171988920357287,-0.581142301904705,0.6326997772228116,0.04922814674322107,-0.283014997544167,-1.1582580538890066,-0.1909741299118994,-1.5513218512530107,-1.040990461409947,1,1.9765625
-0.9095680895211108,-0.4754003331065794,-0.9612683763766519,-0.8750382548106647,-1.9177116601458106,-1.3958605154040435,-1.35475866430825,0.18433044756712264,-0.38219270307908426,-1.0159474504046777,-2.274042261427798,-1.4696400129625042,-2.2520000266909124,-1.6242353763359847,1,1.984375
-1.2752576315063329,-0.4484255053995952,-1.758123313767574,-0.70471344409298,-2.04741020990105,-1.1909224314943805,-1.677278787979733,-0.6336040400643486,-0.6636288764147448,-1.6641590493716945,-2.8038916946121577,-2.7675993622751798,-2.5208895304321177,-1.9585454758310872,1,1.9921875
-1.0782804626029168,0.09308849725084417,-1.2928495388293522,-0.15565795017308767,-0.874626723310507,-0.2662717717783603,-0.3853668281510693,-0.6558063452380839,-0.6685334355816854,-1.6901348516856616,-2.5579496291052575,-2.5536395024304026,-2.369349535761753,-1.8490419110972414,1,2.0
-0.6217939807639057,0.5911361353679153,-0.19557449725412485,0.5268460627171547,0.2709511204994,-0.3563019355594374,0.6510508610368286,-0.3405905832779453,-0.39049589606365237,-1.0267340442963588,-2.029361554408576,-1.1683082786063486,-1.8623015471326334,-1.2950844775863177,1,2.0078125
-0.4060511751119314,0.7425871103039849,0.18991543937368,0.9056789910172522,0.548485440031093,-0.5577077593170455,0.5087365885984161,-0.05437514453055905,0.09793242806179142,-0.268347171037589,-1.5924269925502186,-0.15523116479818408,-1.3329563452870528,-0.8051082973954603,1,2.015625
-0.4207283760147775,0.8470464051205392,0.004811480673552032,0.7880414460483951,0.5490112990282567,0.2807462676098773,0.8302221993589024,0.4155606207574321,0.18934302159060196,0.014061017872763907,-1.0458905197615314,-0.07392744372174058,-1.0851398875169556,-0.7093131437758318,1,2.0234375
-0.4448641618602825,1.0839075546715864,-0.009024551777026053,0.7126581024394887,0.7126828835251904,0.896226165914105,1.6118244111449698,0.6759625762405332,-0.10243198253777003,-0.03756639730145072,-0.5737999825437811,-0.49369029562671546,-1.0317264203339025,-0.8697734292867108,1,2.03125
-0.48120436814084305,1.1024922828021513,-0.05578926633529368,0.9297622023212232,0.6836821402294857,0.3611659006084728,1.273248852015261,0.45748102107320276,0.06538265465775137,0.024472493278371348,-0.7714922790643435,-0.9798719380476724,-1.045456088094634,-1.0622094023081146,1,2.0390625
-0.48453385160448376,0.9424182057283164,-0.1452709910665612,1.1641153668583342,0.4579383992263396,-0.3022025564448829,0.3581150370316017,0.28431645711738596,0.35935140667222204,0.19148400667140603,-1.0851225815637764,-0.876694693129519,-1.0854676033034312,-1.056830597864802,1,2.046875
-0.5211053550909427,0.9367954359789816,0.010552868206905089,1.0661329245487468,-0.0771645454398708,-0.65360887691,-0.12396029371990033,0.09856933034582996,-0.35308484467718887,-0.047367301114360924,-0.9605842875417084,-0.23884957839996063,-1.2574667961112287,-1.023315161328446,1,2.0546875
-0.8845983275062202,0.7854235354680268,-0.27780775980919425,0.43952213564853204,-1.1180485357268266,-1.2768941131087306,-0.6703232406230134,-0.5679616758200047,-1.330039092466206,-0.8894233235088629,-1.4767845564209614,-0.5407210403604225,-1.8218264177173982,-1.4449486111543592,1,2.0625
-1.317773179053236,0.3285505214610764,-1.107363946977672,-0.09040574897143905,-1.6071103941849894,-1.818754647272002,-1.0052239775985976,-1.034800748414849,-1.0807631701234262,-1.7401006897123537,-2.7821461938315815,-1.8979751380656216,-2.480874915459627,-2.002588501154545,1,2.0703125
-1.2649069694669615,0.17150249102307302,-1.1236583639903999,0.1904561322155049,-0.92118084568282,-1.5080692244856468,-0.4903222017299939,-0.5838189443741018,-0.3210111779340921,-2.072622381009083,-3.168795041473129,-2.365530287641943,-2.5656492306060894,-2.0303672280327256,1,2.078125
-0.9786260932281102,0.4865416794163345,-0.32531090493178205,0.6168659407464611,-0.33617710814885315,-0.6250119115374029,-0.08223698232335203,-0.02651090446416577,-0.3633924762700088,-1.9527764329632205,-2.452183225801823,-1.7146010110663208,-2.2461185970809874,-1.783886278534609,1,2.0859375
-0.8675099449181948,0.7266481707592785,-0.08547270375485666,0.4753640784603514,-0.4094461537171185,0.005942793515278258,-0.3598894734054225,-0.22703850820102303,-0.6850559287252539,-1.3386865275389928,-1.8979363986632773,-1.4045134703948927,-2.0017441489422203,-1.561036475934646,1,2.09375
-0.6508121232896983,0.7158655138352948,-0.2119095822222989,0.38701000067003877,-0.38145592731607897,-0.07924386792311203,-0.4598483563416305,-0.7185191465115027,-0.46771851983300167,-0.33477476209537954,-1.4278228968076756,-1.1691047663689291,-1.6093272795396452,-1.1076145012542862,1,2.1015625
-0.35570831971280287,0.7116026330476294,0.101056889893805,0.7060804018786649,-0.3557821453884596,-0.6652620746647475,-0.0923477806516509,-0.7654169341138438,0.03346421674923231,0.10394564706040446,-0.8077037575292074,-0.3762899554486561,-1.166564616466932,-0.7811894250388329,1,2.109375
-0.4646976889419102,0.7306617361145781,0.23282295924443472,0.8211828062863156,-0.5479667471398834,-0.9422764409160793,0.27494412754133707,-0.37744339537956456,0.24447746352985833,-0.5051981321036564,-0.9491006675859692,-0.1783447323968963,-1.4091198857465053,-1.102837039075808,1,2.1171875
-0.7220937483356658,0.6477767121694764,-0.1332796987182141,0.6265929310194991,-0.3681759985148166,-0.4617623582451369,0.5262562988682699,0.057666065369944265,-0.008003179393092768,-1.0771693167393486,-1.6887933023811883,-0.8632182293945552,-2.088086359126484,-1.4784299380172365,1,2.125
-0.6344754582799743,0.5951495017034732,-0.1869619125727409,0.594479305534502,0.09008876406170381,0.24347735174097432,0.7379264822551549,0.46111199436422434,0.12494874591242995,-0.6948387752928795,-1.6950593382354648,-1.0102244204348563,-2.1102894859005175,-1.2575446584075969,1,2.1328125
-0.5089728283427751,0.7257507848606315,0.05849754630213128,0.7091018320325116,0.2946186857003556,0.4765712707691342,0.8521088060789102,0.8944655910086797,1.2047807758260072,-0.058124368815039254,-1.1226382109013193,-0.5680406498180829,-1.511884727161551,-0.898847587741787,1,2.140625
-0.590179107400378,0.8982909025128344,-0.003180825991164944,0.8177897483409867,0.383672959268468,0.18000845706242283,0.5021651071626473,0.7683320922498389,1.4114354340741628,-0.062237014096399916,-1.0784651569490422,-0.5708896783445998,-1.271861520909419,-0.9186439390638638,1,2.1484375
-0.5102892320404445,1.0412882862269086,0.03339986377144769,1.1958006258509393,0.41530870754023486,-0.2498545437551198,-0.5647708885757863,-0.4705337550660755,-0.45441349346289583,-0.44389541116738834,-1.2181144452633554,-0.57938846852287,-1.4146635017002591,-0.9991272439739393,1,2.15625
-0.3032691985479471,1.2398786966433362,0.4877184165308836,1.6766975244641424,0.20250088769651517,-0.5502282596235097,-1.3789022723454336,-1.7309417023084968,-1.8677551608498286,-0.7187913077580875,-0.8316904292318859,-0.0495850640690074,-1.2850886576727847,-0.8692302708048685,1,2.1640625
-0.4179921037480037,1.2323651624907646,0.5294385698857452,1.5341233595703707,0.038823595746302904,-0.7674458350611925,-0.8243008349447721,-1.374576125848818,-1.0954537748838638,-0.9492961976196335,-0.7631205579331082,0.027118213697241114,-1.1387987936476787,-0.9177361521216553,1,2.171875
-0.6957199582865461,0.7921301278490165,-0.10521138349823349,0.9187470938145511,0.2019996262915841,-0.7018873131779867,0.2684154817028821,0.10352367933597656,-0.26704089822909316,-1.1429490405153242,-1.647573672297488,-0.6670025293933072,-1.549925410315646,-1.280825582867689,1,2.1796875
-0.7361047178128514,0.36250634005759275,-0.4647596690561989,0.6306740103198507,0.26414313107591464,-0.12237501892513182,0.5040366155645823,0.7238159942192258,-0.6091290128006326,-1.2651975473445722,-2.4156195446321918,-1.0395877109336542,-2.2091465570321485,-1.4805019588231048,1,2.1875
-0.7232525861215174,0.3879888843422391,-0.17006326529916868,0.7148910935812416,-0.16316257339923068,0.2837646706642947,0.14328615335492104,0.07957752385710543,-0.6294818761380587,-1.4470014475501014,-2.3938336295856133,-0.900185971274485,-2.604125371998923,-1.3976995574811675,1,2.1953125
-0.7901428979739747,0.685650718326038,0.19980050133642363,0.9885680600802319,-0.3927217582763059,0.06154875164632757,0.04015268781821332,-0.5178325595806326,-0.09362550692208826,-1.4134059102396042,-2.204991808993801,-0.8322052762434862,-2.567308850623275,-1.2772272689064867,1,2.203125
-0.6131521325460763,0.8801586867013056,0.336316485112434,1.408211904535267,0.36362458589940605,0.16343618135548926,0.23979582617640569,-0.4074960835903324,-0.09120561412736643,-0.9374664287313481,-2.011005850763954,-0.6361478964895837,-2.0363053611690476,-0.9812529611493485,1,2.2109375
-0.2507932902839599,0.8582007327475286,0.4558699405700325,1.4213200598109674,1.3919962345389956,0.8320935525893882,0.3431188932528091,0.14201282351281033,-0.20650733970985366,-0.4898870529091738,-1.4500889805961639,-0.15098181901732252,-1.3368234677602424,-0.4564056200181238,1,2.21875
-0.03650186856783375,0.8045930208793979,0.8508411300500255,1.1261276655546035,1.5910935577854435,0.8964930474061279,0.08216827857247681,0.850787125296827,0.09135744649288184,-0.2217131470180853,-0.626261837575752,0.3349124702693741,-0.8134649384899996,-0.05935454332794944,1,2.2265625
0.19058163435836675,0.8518242338553844,1.4752293272542434,1.4599267757686156,1.1043982703726778,0.31247607383489645,-0.13729907129246868,0.9306870911670688,-0.12556465852095225,0.16997586346880517,0.2115890814902367,0.9155100452024328,-0.31017950037935343,0.12636036364617212,1,2.234375
0.444135619477867,0.8165717354064811,1.7614621114814988,1.9260480396909971,0.5271949039211764,0.02942094701656069,0.1953906958910369,-0.04754274006534201,-0.7451677503246699,0.34581444669565836,0.6330351599708164,1.389435977240177,-0.013375915548456754,0.2241684767100066,1,2.2421875
0.2585900864183955,0.6194585755900635,1.4151019654960098,1.4610387148636035,0.12178725754951097,-0.02470427371800919,0.2874753375394828,-0.6182500294152582,-0.3728853046562855,-0.04212154055238305,0.16828439150566407,1.1714571063715384,-0.2864084254586409,0.15282998544247,1,2.25
-0.17133764962557993,0.3982491817868868,0.9657844911621196,0.8232580610656829,-0.07998570753429649,-0.1440674640896297,-0.5832408598286501,0.039434104779791875,0.32895203003262735,-0.5368177949376194,-0.5335604404446506,0.6371784120309745,-0.5843533215274624,-0.028024058118069343,1,2.2578125
-0.17031736278730297,0.16521384967603298,0.7901112156609442,0.7960856559662877,-0.23643067484807492,0.10190935145849837,-1.2280254095033594,0.18599350984442464,-0.19475267981232755,-0.7322472311484797,-0.5903743272950424,0.33963749437815577,-0.49681164315036436,-0.1331302984571857,1,2.265625
0.1111518598950736,0.09599270307516508,0.7293710325245809,0.863978070300945,-0.042903411513463205,0.6515251487639546,-0.8137866552929094,-0.7879593410287037,-0.7762415806826154,-0.6762664926091057,-0.479444012632222,-0.08854486400494535,-0.5529462017902493,-0.19755556940428357,1,2.2734375
0.19170891493433465,0.4003366973245292,0.9953958051333371,1.156311015786772,0.6889438763621547,0.5263169023081558,-0.388472067056569,-1.0508143279248359,-0.18789383761346878,-0.5849288225184696,-0.5713256700099925,-0.46336647686790816,-0.7827448285336399,-0.19874309519478237,1,2.28125
0.19720111642057828,0.614647622433063,1.7041306899452244,1.9181816276490844,0.8133171203974044,-0.6359357919294534,-0.32632993006388084,-0.3797800251383763,-0.2613736922560274,-0.7758187202460656,-0.3002427863542677,0.0526822617491406,-0.6780594075591104,-0.023725389168459232,1,2.2890625
0.27822167702714307,0.3797218918825427,2.023722770874751,2.1482967116433622,0.11776521190811695,-1.5367572243140688,0.1784071379810235,-0.4003515693758828,-1.833028778057581,-1.247051143255491,-0.038378913403134526,0.9304069051220286,-0.5145376841054025,0.1353382713897094,1,2.296875
0.28837287729482763,0.21904974906957708,1.5880870912737417,1.624190828840985,0.33691437776734995,-0.8616016922834308,0.8622849466004703,-1.0236899947976008,-2.520925995115962,-1.6688135634894936,-0.5462248997160792,0.9239179849980277,-0.7173868737385851,0.03681810071069329,1,2.3046875
0.18574262253122314,0.24811029518297523,1.024006923476714,1.203716694063057,1.0733547514720159,0.5132965111236127,0.9181617092449725,-1.0224128057865036,-1.4140830461820881,-1.866531952138888,-1.0686083900804497,0.15552764773657332,-0.9332588453465495,-0.23294111791707517,1,2.3125
-0.01925143064881374,-0.09346120159490307,0.3493278518654641,0.6987007423274767,0.26089632705956034,0.8226786195316798,0.5780091806207864,-0.5555263319203841,-0.4977369073030386,-1.668907849976501,-0.8968557708770849,-0.43655712235771366,-0.8115025110112046,-0.44377297172727276,1,2.3203125
-0.16475830130505784,-0.4386172237856178,-0.3677613240735762,0.046304804948571136,-0.6162605051294907,0.27491181886835836,0.2580524080652465,-0.39028648051923664,-0.6225901393542723,-1.1397196678685868,-0.6446440840086546,-0.4017374254075108,-0.5305140367961154,-0.3450756865034134,1,2.328125
0.06480582743562789,-0.07040590718703417,-0.17757136742868818,0.3385435772725375,0.7375735264246244,0.4382273716652075,0.016455019326644043,-0.4614140146441938,-0.7064659229152466,-0.8494625750016848,-0.5396557660093549,0.15654309023701057,-0.3550003616716261,0.08607008394327684,1,2.3359375
0.42728602393494,0.4100567751511469,0.5038149497699587,1.1818178302573876,2.0771399414734644,1.3487601755119754,0.1527658510078203,-0.4122709617887137,-0.36415750552394227,-0.8073923247556256,-0.25551426779608466,0.6341418301292806,-0.4035964363944022,0.2691930025771509,1,2.34375
0.4215617914606003,0.28878147395055515,0.36318565640859374,0.9401115938942954,1.1214009555482143,1.3505157842536586,0.5368061601868737,-0.4357607459398104,-0.43045239344013164,-0.5446641109520594,-0.053799667771021395,0.5821877613180755,-0.5889162375694025,-0.17554123819261683,1,2.3515625
0.31942177061383564,0.06157743677131938,0.0626986392883403,0.09908577146967366,-0.001775767749725241,0.008298014348516252,0.3161711395102128,-1.025109697088321,-1.3648023551474138,-0.4557191293583115,0.0063763709057744,0.47552561897528456,-0.5640872784983603,-0.5041082469075517,1,2.359375
0.5100455075499833,0.12418600367944263,0.44706779208685027,0.19963640268890986,0.42159896346218423,-0.952483740718089,-0.5018092175239562,-1.9638649750346917,-2.294064156828667,-0.8524204615509087,0.27715886073332785,0.552934066049029,-0.1797919820721037,-0.13577339853471757,1,2.3671875
0.5422620261029641,0.091539957663525,0.38828967864521885,0.6351401224900574,0.7764989859612778,-0.4775753120260694,-0.8659738992346872,-2.392408648157513,-2.3257021487663883,-1.1029413032231095,0.2555385029698322,0.025063065505896934,0.030520856272527336,0.07874979614633593,1,2.375
0.05459768163121674,-0.2206029441063337,-0.6890533549640726,0.03632931641498346,0.0021447262811539,0.5588432738593566,-0.4705934048265597,-2.2469258844938933,-2.1266661500426665,-1.2704789613331844,-0.6450621837754816,-1.2166594355746974,-0.46723826967900234,-0.5293036837138959,1,2.3828125
-0.42570611576738293,-0.5560358315247245,-1.6127273633800012,-1.0088700094953675,-0.7692620010131189,1.3700731479558543,0.09900157484682219,-1.9953066378893431,-2.1798087433738034,-1.772281480317259,-1.5277256664525483,-2.002367804574683,-1.1510590830044185,-1.1149090202930088,1,2.390625
-0.41425555066790615,-0.6309793114736849,-1.5526038372236712,-1.187229803095938,-0.6546121296744515,1.7158327871892631,0.4828788204801363,-1.3376153581738148,-1.4122161548267875,-1.7842878827183906,-1.3209752258653438,-1.7711048127156086,-1.1834442862717265,-0.956879663301603,1,2.3984375
-0.17204856705266697,-0.3623704060702077,-0.8984558606027779,-0.6675217423751508,-0.08840387529867212,1.3101702564455926,0.4316297145713243,-0.41035692784656064,-0.051192777040247286,-1.0309057762541174,-0.5552141422818374,-1.168929127081244,-0.8270564752613654,-0.5561703542283835,1,2.40625
-0.011497743343498745,0.025060064228390657,-0.4082807924935188,-0.23853526638268488,0.37822224581981007,0.8090729421941623,-0.06476726423337328,-0.40033736973867057,0.061583205581182354,-0.5686553227446711,-0.10967725513374683,-0.7094278550925466,-0.6657440850937731,-0.3198571740644378,1,2.4140625
0.21271908786220212,0.31790357626113064,-0.2522057263104908,0.15312056529012788,0.7990292626547937,1.0083813099134864,-0.3055776182836878,-1.293270103743641,-0.7299877296239115,-0.3193096250127885,0.29782507668009467,-0.3281304047456786,-0.3850161078127731,-0.005458808327440615,1,2.421875
0.508441811176788,0.47074951300216933,-0.07226946573763839,0.5183479862228163,1.002230890996538,1.0205083814775975,-0.24171916890567113,-2.0030595003241736,-0.8771438768270025,0.21670246897015433,0.9030351153152331,-0.037868804856018,0.16866109699589737,0.3044307406253302,1,2.4296875
0.48224793459269566,0.33345247056243815,0.03339931479739949,0.2228469070604641,0.3731169962239571,0.12100209597246626,-0.7748525857363848,-2.3638773757172586,-0.8993014119259696,0.09433569116514108,0.9883458127726941,0.012522119376230075,0.26147496666658976,0.21699984812934908,1,2.4375
0.11919763097921991,-0.06727251692273413,-0.225426094336991,-0.566842866296742,-0.6961809848085997,-0.5324851490678678,-1.389898865989372,-2.1472190314722144,-1.1440042849061163,-0.6516387385623427,0.38745296975651994,-0.05735216870481913,-0.2812246211125225,-0.12824574624704313,1,2.4453125
-0.059619905380696774,-0.3052333400700519,-0.447464153916,-0.8588003492681451,-0.9482794310997679,-0.16222089654317803,-0.7533681601395841,-0.9198629368822028,-0.647055859944678,-0.5664385117956509,0.015790230249930697,-0.07188114932228636,-0.6249109671912717,-0.31922683154588993,1,2.453125
0.037362700071365024,-0.22645663781658124,-0.31300690286828936,-0.7039077062213006,-0.5187462827406073,0.30122164318938077,0.1610690660184279,-0.03615494488529157,-0.25215531847395417,-0.15427646931907416,0.21035741280542014,-0.16219169621297283,-0.4099960230123313,-0.3542688891592296,1,2.4609375
-0.024277008793784745,-0.1850845867230523,-0.2061742144563565,-0.8194756768754781,-0.6639628459535968,0.06818280218966295,-0.282919022597789,-0.595181866093562,-1.0895194889390973,-0.7614798707345308,0.32930153609789536,-0.41026599366183875,-0.2375673378297835,-0.3841042547798845,1,2.46875
-0.21080152080340273,-0.3234985428912089,-0.30415197823611345,-0.9059184944384153,-1.1391290861673793,-0.3777173027231158,-1.0418546825644437,-0.9762858127319902,-1.5761280095879049,-1.4205064592513363,0.1552885912548277,-0.5071016591555907,-0.49417860512078443,-0.3629745774266766,1,2.4765625
-0.09238524343789295,-0.298865728433633,-0.32017378052585704,-0.4864897721061934,-0.6335281279431995,-0.31024770588352907,-0.644187269325237,-0.28484740614163107,-0.9884115340805583,-0.9801491969878936,0.1665045932503262,-0.2154816863259238,-0.6564723373316856,-0.22416709816836092,1,2.484375
0.2119377955879178,0.05638109767538125,-0.1907021679082398,-0.07001004474822041,0.5235450327007217,0.1800543866676855,0.015238109875949563,-0.169603939887996,-1.0446224958527377,-0.28491898372155294,0.5160063740582418,0.19298167397257093,-0.2317234158995227,0.07195387889846576,1,2.4921875
0.2745347865598176,0.3390668306453591,-0.07851547123901098,-0.11775408516048344,0.8452676658216746,0.6575351762822166,0.008589210548280726,-0.7994793758887371,-1.347675425485491,-0.027215086191036904,0.8558990124770899,0.3205052441298922,0.2884598488366233,0.40658122227802485,1,2.5
0.1533314878318362,0.22721478443701826,-0.055917663421079164,-0.41105357336304865,0.26329431386843577,1.084124384194574,0.18461152021941088,-0.3755840601422308,-0.06093222152105439,0.24878876819735019,1.036858516714671,0.1548288463542816,0.37759416370163634,0.4191674853367097,1,2.5078125
0.1243254098387207,0.04285599464686523,-0.14531702512593278,-0.6240279379897818,-0.07987067974553544,1.4090268816287033,1.0305204605176221,0.7754022380641075,1.382189392535927,0.668982874709325,1.1967011384662103,0.023722292803757462,0.4437086153329032,0.1676940850357895,1,2.515625
0.2023442544694851,0.1606440994173608,-0.19735097462836515,-0.47476302696643313,0.15208108109095902,1.4282346872249272,1.5947179699974952,0.8528498376610849,0.9308443780860013,0.9236561719929239,1.3080018615228406,0.26547853658915166,0.7251904300705687,0.1627078061293089,1,2.5234375
0.3127549212116636,0.38609617248603656,0.06546292980305382,-0.010973794610134332,0.34374686133902216,1.1768283547579594,1.2854333544825114,0.26463026743708307,0.1439870992108358,1.0088660755635173,1.299336306896975,0.7752778102126059,0.7057336677843927,0.32589661834657363,1,2.53125
0.38936709175403533,0.34310898727840394,0.4458787265586352,0.15282120694585535,0.11156314315987352,0.5996111059517392,0.7118649573289666,0.28553929853067517,0.5099391892640769,0.968555630368881,1.2695510676374522,0.9014637457590327,0.3160436157901648,0.21403159341079966,1,2.5390625
0.30488043782557106,0.02596402654655278,0.37924195846244274,-0.27053186069883045,-0.3629063170942989,-0.17441336652972225,0.3815865778869074,0.29938626492604975,0.3006095420871001,0.5928006730815999,1.059501456279811,0.3699212603257985,-0.0027378352416737584,-0.008520903147205524,1,2.546875
0.05632222888699232,-0.2160527183135417,-0.0630492264009419,-0.7330750897002628,-0.6989599367344848,-0.381844373049774,0.10388830709145368,-0.22634869871831467,-1.0741905898704083,-0.14218392808827549,0.5128651201957117,-0.14049925600072985,-0.2187591492863691,-0.10827722041352482,1,2.5546875
-0.11631915922239928,-0.057190329257344553,-0.1876285516602564,-0.6595643743459154,-0.5462084275887463,-0.014698335222751267,-0.09558035380693113,-0.10914541393125642,-1.01389600200094,-0.5294853341439822,0.2969650349708811,-0.05324198206778636,-0.3060459525807692,-0.2106907701557045,1,2.5625
-0.00396780555545328,0.35354355567942286,0.19036507791813673,-0.18093644807908316,0.10590225448379419,0.05853361283990093,0.13355955159407953,0.8617427127981924,0.9181049389677522,0.09002021914587226,0.8688062833646909,0.23534472383380714,-0.003240219904749162,-0.17484143293023346,1,2.5703125
0.18359737073946625,0.4596386421839176,0.47165166925554164,0.010629166547710052,0.6119559008966238,0.14522255661947717,0.696975524031571,1.2301962680998644,1.4047301644193657,0.7502461917673877,1.2171282767570624,0.043787699819830724,0.3402153734603717,0.054490014871469566,1,2.578125
0.04877047341345685,0.13437953317400209,0.2355512799972077,-0.3253797755812303,0.34869119435800217,0.8951721439124958,1.2473208996363732,0.8286226201106577,-0.24323772986909392,0.14386000797959594,0.6849121892234157,-0.5199551930687804,0.19876282224404607,0.09588643124725345,1,2.5859375
-0.17321661607210628,0.02927398742101666,0.008785208554960745,-0.4093848652166879,-0.07518797495445512,1.3396717685943453,1.5372034826107683,0.6626501217776529,-0.7012481352787184,-0.6264322587819258,0.5148105411959949,-0.4870942054600854,0.04839979449771599,0.0724811136359097,1,2.59375
0.16750522230993783,0.532772537061229,0.5911513493813906,0.2260897877262583,0.46656748069456,0.8372361809393368,1.1963348376812526,0.4663732886515461,0.4954650729260738,0.003512816816259661,1.483640293809263,0.5478758446468601,0.5121773374113968,0.40761478374756815,1,2.6015625
0.8178699879187786,1.013429259216755,1.5634272930138788,0.80480967013458,1.4518783834200588,0.4693718400256853,0.3834638215020559,-0.249363144898501,0.37765936099820513,0.8761880041328693,2.3236049809837396,1.4146190703497346,1.0919751646315117,0.7507915242409171,1,2.609375
0.893542814414526,0.8787731296299689,1.614993637235201,0.7475342529481009,1.3689567931671804,0.7464256689817633,0.17351166164569007,-0.5657854791981397,-0.7106762022010288,0.7538004396461402,2.2098494193742435,1.1553146904758458,1.1782939201550855,0.699996959005577,1,2.6171875
0.5296581950788734,0.5527504578080698,0.7265406620684692,0.5102374107029365,0.6152601437900199,1.0637184227628311,0.8389647985719282,0.007876006489268518,-0.17182622339351858,0.7250339586384409,2.0172063719514592,0.7019845141025625,1.0649097260273035,0.5819884737008745,1,2.625
0.4927901020463498,0.5371858783485557,0.19832396505384817,0.43956588976495026,0.7774764272901398,1.427743086516773,1.170668838175397,0.4880527354920897,0.723030636386223,1.0441450915931845,2.088701350155112,0.8836163313838389,0.955753284157826,0.5681633585664052,1,2.6328125
0.6025949340330995,0.6166358254778952,0.3035057910122349,0.42437494519881674,1.6239113103940026,2.0126875862976163,0.6587110568525959,0.34084524219601614,-0.18006330348296568,0.35557246840107753,1.7065022757284298,0.7450273830933616,0.5267961248546101,0.37633658999954434,1,2.640625
0.36302831070475283,0.6758550531512408,0.19371344398005091,0.5667963785866579,2.004411223848149,2.038334036599671,0.11384336319720598,0.014957535212308012,-0.9484316596881707,-0.8658343961721103,1.0196367479138293,-0.24631124595215015,-0.08253969010752434,-0.0012303668301922217,1,2.6484375
0.11903199691955181,0.9015347152911942,-0.14806673383405478,0.843270091508729,1.9337280742040621,1.0408233483675249,-0.2127696582004112,-0.24937407746261306,0.019065101718944523,-0.8773065984561288,0.8815434354889109,-0.8664051155851499,-0.2992416324821863,-0.265520017275009,1,2.65625
0.17606042563415408,0.9779287423673554,-0.13355885639442067,0.705945207805685,1.4930780945688613,0.19423677917218718,-0.47295379235922086,-0.07281448453350467,0.8741275136779642,0.14476378257085687,1.2795106018057059,-0.46034100349597834,-0.06125557701739016,-0.23955495228978743,1,2.6640625
0.1994517123951197,0.6094151880408236,0.04842604831540594,0.10730149658570305,0.5666627932985651,0.5748080997133641,-0.10741116884493074,0.966467801621774,0.9017305022598091,0.8902919909607928,1.7004621282918686,0.022378243447016992,0.25041888344163676,0.005037822945617467,1,2.671875
0.11205697964371904,0.4101766652166533,0.042279924202006915,-0.04641433501251785,0.10578412668382774,1.0320050925584423,0.5797832031843538,1.5133465452867918,0.8734924076382014,0.9305364566030242,1.9544325689032567,0.006800405265163609,0.4284558061183266,0.21900968784853742,1,2.6796875
0.16940152741695,0.8588162964552926,0.11049717909388246,0.5305828099426213,0.6898874579631973,0.25784068814008854,0.1297700389391279,-0.11916595913333236,-0.22791614205440053,0.4005469326894648,1.8591585779850508,-0.057629484795506926,0.3834401628400685,0.22056718453073382,1,2.6875
0.28650006159519864,1.2218760289683268,0.24585772890282048,0.8108969602512419,1.2027950318079847,-0.45998135722011463,-0.9356677508643381,-2.2859979815725353,-2.190148426747704,-0.342677908737164,1.3761969276754227,0.023716163891728603,-0.0016469368233098922,0.09434482774294103,1,2.6953125
0.2606216653934517,0.7436403394308904,0.00950854817824957,0.25383371354000006,0.7720094446993258,0.20302481148676418,-0.5412118541889536,-2.1027930318549037,-2.297256190586871,-0.7221400458301918,0.9884404979905611,0.035569849744946286,-0.4522228629383061,0.02230873576967312,1,2.703125
0.13390587097179482,0.04165499709825592,-0.31250696157785035,-0.30809723040330267,0.06059010357154042,0.9115056923322336,0.7082384152161618,-0.3600890994119341,-0.8255991400532582,-0.6939076324123346,0.9599182849490627,-0.10568397359141857,-0.48335491340955117,-0.005127724597028269,1,2.7109375
0.0275850608491253,0.12371577483706933,-0.02172878440960696,-0.1930489082332381,0.09973200183800937,0.6838563976290243,0.691241151627368,0.3276869348329723,-0.34373886031124085,-0.6297501651146222,0.9775935199463432,-0.413358722646975,-0.2953862138042133,-0.053798837758284056,1,2.71875
0.09955068813845022,0.7113153781907836,0.6624993674621358,0.25216145527374706,0.9120307356519797,0.6840545444553486,0.11773806451525805,0.153275570090081,-0.10877097434076959,-0.3655876604664414,1.1567609719381946,-0.5069477586566371,-0.24046733481630578,0.10200860134604983,1,2.7265625
0.44567392668726746,0.9210216030803334,1.0547094316868402,0.5438988940960092,1.533865985152754,1.0584861769927505,0.4018350482285057,0.507285931304132,1.1933786153739494,0.4071577761656395,1.9912262230085191,0.19436863431466614,0.1378259477614029,0.5747735137809634,1,2.734375
0.7837701325342818,0.8560418425406584,1.0662581477885127,0.746764794971861,1.5411355422436508,0.7822663700634377,0.41974386045450024,0.7118493175325774,1.5233595815161192,1.047431510716613,2.817025534138956,0.9771724463308227,0.8082754482527679,0.7798931354330304,1,2.7421875
0.7010722950256254,0.9805650117185752,0.8413664172667321,0.9931234706386347,1.46208065522767,0.658068657892972,-0.2331901001961963,-0.03970902437378264,-0.009307670132560737,0.620210892721822,2.420890461833465,0.49553049673462773,0.6720486034060814,0.29949231642018087,1,2.75
0.3607456370695533,1.0128928541677762,0.49570774012973473,0.9418481048934272,1.4014138404719894,1.530555823512557,0.017077432841730418,-0.6662080057446886,-0.9052941537636577,-0.31543664083771644,1.4776516978822596,-0.5099792572298593,-0.12762305311804648,-0.12015569041992784,1,2.7578125
0.37296142193173365,0.7497264232825636,0.4585165734269529,0.5161844788474088,1.1961883164356004,1.698592356892933,0.7826580706406773,-0.43572633615370965,-0.16497725680004277,-0.2562882943510757,1.627733139212077,-0.19988328267361002,-0.11499056099924924,0.2526555516187693,1,2.765625
0.7540586050446151,0.6184032013259855,0.8424638717929163,0.46223291378567927,1.1383767114359793,0.3531806881605214,0.5236568667205016,-0.19196155139326376,0.37318358456512907,0.6398904681652181,2.4628259805824735,0.8761142916549708,0.5940200917023195,0.755399834892081,1,2.7734375
0.8160181315891809,0.7413357937309767,0.9836952315494981,0.8572537692905923,0.9952820662690882,-0.35041003360930656,0.08655254454768317,-0.3990933944009866,-0.1957941176802458,0.786077145075685,2.5601264934611536,0.7947167287619915,0.6194695752016879,0.5307044090312921,1,2.78125
0.4201456332558945,0.7559997582634476,0.601500069476684,0.6998028695145747,0.3570518078918623,0.5897813901400333,0.5138904269863545,-0.48211973920248047,-0.6839425518790956,0.13543566472355473,2.236949233083422,-0.12191246254672462,0.13544614679481629,0.10216260153300218,1,2.7890625
0.2890280076463395,0.6564696529785191,0.4109025830286126,0.2065571212743717,0.061816210148617115,1.4858446343984173,0.8354873820385709,-0.1288986002814712,-0.0017415372674211315,0.21500219318081043,2.506998711343293,-0.02270981890611033,0.2930040892079571,0.365717294316181,1,2.796875
0.687672582904437,0.7916652005653397,0.8277775344834012,0.6287054852058345,0.8410845565457091,1.4885200477413376,0.5667121409392857,0.4182276966777349,1.2080431772470006,1.2320930438179771,3.125163199009477,1.1162726725599796,0.9868043679836896,0.9700055199539853,1,2.8046875
0.9388280305955478,1.0260567346883294,1.2271723185452907,1.4018007622931357,1.6254324346939863,1.4572145635227212,0.4530823174617464,0.8693000795820914,1.4079010667517513,1.624704677828923,3.1620806801908414,1.611091146010339,1.2533323675873016,0.9888896865246176,1,2.8125
0.618131270835042,0.7801836486657219,1.113683806651935,1.0938996252093827,1.1680307463990844,1.5302683227948428,0.47976890760126517,0.7707951202690989,0.37755388390437145,0.5853188869539621,2.0916199979448105,0.9198442702974414,0.7059793792608515,0.43891378336394615,1,2.8203125
0.16535001470410293,0.16519953811756352,0.8147800213106872,0.38634087871935624,0.1313391897523055,0.9780720238504903,0.1326057016537794,-0.0940305223874454,-0.5270787826147424,-0.6964738758546483,0.3703135174907384,0.07801289623731533,-0.18601903053919536,-0.0012641482715588495,1,2.828125
0.008247946032869328,0.007562611614936939,0.5675919159530551,0.6226129526184985,0.04473419754083493,0.2185941194590285,-0.22356690880859348,-0.7039785179508345,-0.37218891132724075,-0.7454622070814131,-0.7537101925998347,-0.29683616984875905,-0.6022185743168811,-0.16143899815004617,1,2.8359375
0.03401955419686988,0.33643479589928504,0.21203579563209,1.0941256560758321,0.8194161041205761,0.5434782883394147,-0.044809860425927474,-0.09282247121896116,0.38340281631097767,0.18734229049500778,-0.7955414961215536,-0.39480794703335087,-0.3617255434658769,-0.27981725279767683,1,2.84375
0.06230942654858844,0.3050961127551076,-0.14033929240248091,0.6237797301219433,0.9557211507999491,1.6273424622655006,0.33345832019325816,0.6060045302729831,0.9096258309104569,0.7091516215770638,-0.5642009650592401,-0.31252620839705497,-0.21325488199056966,-0.3244373071842993,1,2.8515625
0.04195500436233079,-0.11520329981814188,-0.2744241623365211,-0.13675287496060384,0.2742092285479495,1.9333940382032442,0.5088814673662602,0.3341577635919215,1.1112758763390993,0.5335630305725894,-0.6817434683512215,-0.21850899141776273,-0.5324279530342881,-0.2132749700725693,1,2.859375
-0.06210057202636879,-0.11633597035015164,-0.2654006698574404,-0.12005475422841651,0.17662414915754138,1.6441515339175197,0.8376347932034348,0.383679544334645,1.2461998524685687,0.612539226966823,-0.8789522388791212,-0.20669189623819492,-0.6659773315967132,-0.09654452764823751,1,2.8671875
-0.14675037657681728,0.2478604711513656,-0.17280694654736634,0.2788583210368866,0.6974075378939142,1.785850815073469,1.3969266283754467,1.1751204426586679,0.9689207858881059,0.9170382351445319,-0.8082296954911123,0.07765584476968894,-0.2519738145259423,-0.04996366850082692,1,2.875
-0.16499753541000745,0.1664681287939211,-0.08527580745042841,0.23093992362115554,0.3166748809666121,1.5961820335706498,1.3969738322988798,0.9140035112529178,0.06741343620052026,0.40641471948258934,-0.7127043120981063,0.3695075285872521,0.03123086929910147,-0.09247411048749231,1,2.8828125
-0.2641338669682613,-0.27910055556252544,-0.15615830967203298,-0.0773101368752594,-0.719363804230719,0.5150747024689937,0.6744023273629851,-0.18144379434324143,-0.42683144116485594,-0.5060625263747937,-1.0059533153225886,0.020620811756833418,-0.2411409521410079,-0.26310363260496905,1,2.890625
-0.343537572609224,-0.35280191488368534,-0.15349271954240598,-0.04668167276767549,-0.6638293968901007,0.004556441529086618,0.21736883862658427,0.06660282230746914,0.3340261911755784,-0.38837781873607513,-1.3622288771715403,-0.3290869135094339,-0.43409243000088604,-0.33205180577284965,1,2.8984375
-0.23916933408390825,-0.1870696276184266,0.06248064601398457,0.18572306840595187,0.04198357665094626,0.48427801991510533,0.30673266472572913,1.2085015489322188,1.2646338112631732,0.3634284565710476,-1.27371754046071,-0.06604971123284312,-0.20423446921394448,-0.19103636127380758,1,2.90625
-0.23988013047548376,-0.33338330494241697,0.043581322363209,0.06949211481406672,-0.2862383707400581,0.43867330130343196,0.0334555039425907,1.1362697154680022,0.8454183573848236,0.21066513279433366,-1.1941872532656477,-0.1360001515708584,-0.2236064893847585,-0.2184037721339138,1,2.9140625
-0.41379207077491875,-0.48244044137836334,-0.22148481522397648,-0.1571464008708486,-0.8867858585917953,-0.31209620239046826,-0.6798079568595952,0.020227443132850235,-0.41975400450780814,-0.6247139262592386,-1.4473601947327792,-0.7225606989562022,-0.6189547631431966,-0.41540101136992863,1,2.921875
-0.2672009567662931,-0.20648448446661438,-0.1392589718477646,0.22180399726725025,-0.326163813879556,-0.6423077628778073,-0.9421822248165249,-0.7445926598427764,-0.9107874396237208,-0.7090327027175747,-1.3210362523893997,-0.5689937091055813,-0.5899157173111146,-0.3183797443803354,1,2.9296875
0.12958420586770525,0.0519183460032667,0.1495099061307763,0.7944403203227297,0.25010330699604,-0.6140413091188048,-0.9171213704127719,-0.9955316605653383,-0.5028090748598767,0.012526161210794024,-0.7957787010347935,0.14960520175267333,-0.17385302077203635,-0.13653642050521497,1,2.9375
0.09328809704425817,-0.10186747769717093,0.04096633790185025,0.5848415398317118,-0.40230537710169045,-0.6861559725728166,-1.2342008073178719,-1.0222806280980954,-0.2144656129438143,0.31763432799707475,-0.8523038367627885,0.0652415753072422,-0.16766397203884378,-0.35833741762880605,1,2.9453125
-0.3168762807095849,-0.3076470872399201,-0.26800091045299906,0.05517159580970026,-1.060905610271058,-0.6630116248375919,-1.2899833913620105,-0.7011719560033641,-0.2730539944313802,-0.1646587653277187,-1.4081035249430087,-0.6656502854497264,-0.5016298753936721,-0.6561542897983499,1,2.953125
-0.47018709958710914,-0.2881282270912678,-0.31728347149704217,0.1542113186784119,-0.7631219769152549,-0.775992000190211,-0.6110961709084513,-0.21053847898622857,-0.43554223427266875,-0.6344663360102306,-1.5610026867245155,-1.0024451858651275,-0.6635727346699165,-0.6492358969514539,1,2.9609375
-0.4061652331280467,-0.29250001074718907,-0.25605096644108855,0.3816262342152039,-0.5649820731818043,-0.9870627578574753,0.22087240290769428,-0.007559099431157762,-0.7441963878062379,-0.8334606149648177,-1.5333167246001425,-0.932575546267977,-0.7642790632634935,-0.6940071712988383,1,2.96875
-0.5288672821085134,-0.4743680546152208,-0.2928005062368353,0.09880417422538369,-1.0151379108522773,-0.3888550259534572,0.9966182713057267,0.008740315677062148,-0.7537549164304166,-1.1909335496514872,-2.0757689222685745,-0.9161032968276467,-0.9832796738641556,-0.9777907235785424,1,2.9765625
-0.7104751107197863,-0.6007786834846658,-0.3044943448085006,-0.12193759825744446,-1.177608620484242,0.4402253772091348,1.5454099480875985,0.451859559468728,0.2132413062823389,-1.1863542770703916,-2.6908385660667373,-0.8919682866670696,-1.0793984597304904,-1.014608668921904,1,2.984375
-0.6417490249163778,-0.46363065440319473,-0.2409312765746945,0.0954439699173136,-0.7046588352596056,0.09886063411621193,1.2128816846238872,1.3771044438174977,1.4845541790872638,-0.09986208365199027,-2.3190488427366347,-0.5604636214586431,-0.8251180023072981,-0.5586157617722249,1,2.9921875
-0.3690890100541725,-0.2185498211261494,-0.11212923938222781,0.3194101376689837,-0.27693253840698895,-0.33405540441116427,0.5649837588369728,1.7675964866355798,1.5493780624060263,0.914085729505576,-1.3041787857223992,0.005821282798699624,-0.3719174453669531,-0.12108669583950596,1,3.0
-0.10382236190690898,-0.1929103041267609,0.20568454512976608,0.3752416097684986,-0.20429519537383373,0.40665339234537784,0.7534877640612418,0.9561173427052178,0.45818984718513783,0.44693051789238675,-1.023237273352926,0.24691016794446147,-0.23010151706217205,-0.16487590098903018,1,3.0078125
-0.017040341510311353,-0.3606118461481917,0.5847418007090759,0.46408038689917663,-0.2336628951757965,0.8466815543715931,1.1932798196534773,-0.16736880766010326,-0.3348953712952881,-0.6733902685012971,-1.649071720594622,-0.07533155317761914,-0.6163820711048207,-0.38262401080663616,1,3.015625
-0.1120617922464659,-0.3084528784531847,0.6216117745318444,0.6875177286005734,-0.06577606877974052,0.3516993032011536,0.9004647581659716,-0.6526118940860877,-0.4201729581826846,-1.0535659734638478,-1.980995903784668,-0.31550480390224395,-0.8985872910125354,-0.28133904585702607,1,3.0234375
-0.12922373787448752,0.03477133973536544,0.35294247285303226,0.9617007170239075,0.5020518685567308,0.3837203675202267,0.3486175322403955,-0.6696576793951007,-0.2821894437920147,-0.7596387839900506,-1.5248115246771063,-0.03005555100985851,-0.5266882627586394,0.032479808693499056,1,3.03125
0.017374662931652435,0.21322943081657955,0.16166960941740308,0.9978451074757615,1.0526517866409115,0.6725543595252178,0.042854886913962775,-0.3968522048482229,0.10903225841897896,-0.2848371767779283,-1.0008590230860108,0.2649567925421506,0.007669476862565777,0.1618767464741297,1,3.0390625
-0.02531480833190989,0.06032414575583607,0.03358636479575772,0.6727760326037447,0.7097954264578231,0.016438849913535968,-0.3123526187219158,0.07018956864021295,0.3927827496605492,0.04738164422428241,-0.9634035454253961,0.16631792180231764,0.08326917750234532,0.008470513681151743,1,3.046875
-0.3279360355885182,-0.12879268821696518,-0.06080442234531006,0.3447804551828126,-0.27260948522721506,-0.8157036501794697,-0.6880674160137161,0.09578989190369208,-0.06382520596528793,-0.280073065031332,-1.2903968151358236,-0.02919263130477075,-0.13379204658215518,-0.22872054576945106,1,3.0546875
-0.4114514545694589,-0.2732249528924598,0.12708485323002702,0.2882640376579042,-0.6814592733234061,-0.9524984558721669,-0.747216735163282,-0.3350359469133027,-0.5093229673083076,-0.9910137036965485,-1.6031947127859234,-0.13318004955718266,-0.3450661191927977,-0.3493795762215696,1,3.0625
-0.2406039957977808,-0.46376370013163604,0.1492102986244387,0.20210216563112562,-0.5251524859604317,-0.5803343845647121,-0.5071168963286125,-0.3065726504265473,-0.07147982276351629,-0.970019945110118,-1.6104574874253346,-0.35866898745997683,-0.531563302101296,-0.40305495699988797,1,3.0703125
-0.3014080005216496,-0.5438858394107998,-0.632915025704832,-0.21611859364097005,-0.4873674627761855,0.35640185604537816,0.04000745110891165,0.4505941952126457,0.6476831883687122,-0.13737130730136676,-1.3815488742502249,-0.7278648594060492,-0.499548000984141,-0.46709763736191595,1,3.078125
-0.45854133214078724,-0.4353956866217752,-1.4169635035537615,-0.594190406885196,-0.1443735248695728,1.2856525633899336,0.8075446110945549,1.2285633416132218,1.0435802447961355,0.5043282348828488,-1.1177710157896135,-0.8795613241142585,-0.12447360166505489,-0.3540542764914598,1,3.0859375
-0.30361364465325663,-0.44207101160544343,-1.2121247764594683,-0.5787273578316882,0.2653339900335262,0.8591200942791244,0.8557431388670969,1.2776128324904836,1.1856404932144589,0.5468857323731415,-0.924042295738042,-0.714756388062914,0.14479229735725874,-0.14880985923454498,1,3.09375
-0.18979214432486827,-0.7526717949915072,-0.6757203712666221,-0.6497723648890702,-0.6242672742458147,-0.7542377163702726,-0.4714003187517904,0.4419092078088702,0.9120715787788836,0.2608863895808676,-1.082494690649634,-0.7062222247493697,-0.09590622046244397,-0.29801722709559997,1,3.1015625
-0.39622909403632234,-0.9814442135556495,-0.6860224348319575,-1.0272585134293961,-1.8299570367530775,-1.9082014629446837,-1.8878152555599408,-0.5304452630874227,0.330814459857769,-0.05871934634740439,-1.6156556285220411,-1.052545084209965,-0.5417846095895176,-0.6572107313269588,1,3.109375
-0.5361801457100354,-0.7184507260055636,-1.1331070852510485,-1.0823521967702758,-1.2217394263780248,-1.766320679286288,-1.903496716766664,-0.752513129827378,0.09446140697716421,-0.06490092887104268,-1.9239005325699285,-1.338905528288714,-0.707535455863738,-0.7229635893164855,1,3.1171875
-0.5603243028350751,-0.3087666496416763,-1.7240032184224627,-0.8748798740618515,0.004704167516795239,-1.0577470526792165,-1.3033434345169037,-0.3756900136474538,0.26808209965924457,0.23056194926110496,-1.7312743845469383,-1.3823339087936826,-0.5373879002869896,-0.5772973437780502,1,3.125
-0.6390631839000124,-0.3230130614796319,-2.00781919979481,-1.0256095641813272,-0.1239847086930759,-0.7156344125834303,-1.3459500822106916,0.004723248884511524,0.33437159623320784,0.3297118683088738,-1.3102941112448787,-1.2654914617350026,-0.2480065520017143,-0.4087069799380366,1,3.1328125
-0.48778873435625714,-0.5982615515318277,-1.5822668976597307,-1.1454602362083972,-0.5381576649207772,-0.543748507760093,-1.4401017412126498,0.29332499613605667,0.1175465791371227,0.13264703626745536,-0.8517950309782111,-0.8504918509600282,-0.11545681840687877,-0.143589679765411,1,3.140625
-0.13244049261045215,-0.6619842610711051,-0.8783915854831509,-0.8070528921692169,-0.2534827649883182,-0.23549878706915886,-1.072292443986535,0.32947998719410737,-0.13719415374379285,0.004532640882529142,-0.6272638811401158,-0.21151215982728486,-0.24897860507916597,0.07448328677474195,1,3.1484375
-0.00793224458654184,-0.5154456914896361,-0.35259365310145496,-0.5910993152333602,-0.21236130837547745,-0.3582687321364868,-1.014850860014785,0.07165372484452764,0.05648023118093536,0.11253456570029871,-0.6245232395645357,0.34179421906239726,-0.268318251894039,0.19081724292954935,1,3.15625
-0.039663001639318844,-0.3566268596369892,-0.021216005034538663,-0.6892757616610792,-0.45545110317565407,-0.6271905315097941,-1.0122365284532406,0.4372619212843748,0.9528661675013398,0.5055754772034878,-0.19093309491235894,0.8148953098946681,0.1730320561705775,0.3751356620696156,1,3.1640625
-0.0008006600249805981,-0.18060932228342552,-0.06633705363717382,-0.597527345445845,-0.30445548909505926,-0.09393672138723838,-0.08992148970506446,1.7215538717953505,1.8857808579701387,1.1953237294882075,0.566611072977484,1.19564724024235,0.6631124706587864,0.44609325518133913,1,3.171875
-0.027863906690475705,-0.006415764036623805,-0.2193400015393209,-0.38695666214336755,-0.20646388143202474,0.39267223372972493,0.8783612625675262,2.4474749520839856,2.039653050479018,1.805552193722004,0.6816807131898802,1.2005428107233287,0.7066152503285708,0.2941761075514989,1,3.1796875
-0.08651805893018112,-0.04432195267074452,0.11873645853217188,-0.5230728816599559,-0.43052739088342834,-0.05790943436477604,0.8264935101473002,1.9544495732153924,1.5107669726496806,1.7864875095038506,0.23255197921869625,0.8898751332781738,0.5490219832365335,0.32860831371056315,1,3.1875
0.01978586149951147,-0.35192795708698715,0.48900083802807087,-0.8709387539410939,-0.3827440704945391,-0.20467566886521235,0.6614229623970065,1.4814071135469724,0.8123925025120169,1.1489035171531867,0.06803210681943388,0.7750766207259577,0.5383799503210882,0.6199995317770243,1,3.1953125
0.1618805482708146,-0.5792645803979947,0.17255542696668952,-0.9082420564099277,-0.08232467914737653,0.24052538361128642,0.812058145925239,1.4023290157426698,0.4579659690165085,0.6030072220204875,0.16834810322156685,0.9857920256642498,0.5289147584697433,0.6664342675023002,1,3.203125
0.12974965122563623,-0.4441805963557846,-0.43472475575165653,-0.6182377521348038,0.051297010064576626,-0.197394710083964,0.3404603370486857,0.8566549351349764,0.706850276172462,0.6670407388055541,0.06949470656281115,0.8840686349067259,0.4487595366745178,0.38719206525446054,1,3.2109375
0.00880530374175984,-0.21782689391765397,-0.7217235054259671,-0.4895590577561025,0.229315623663498,-1.0927814179365245,-0.35003787133643777,0.07546205544666088,0.7310266090488673,0.9520943676301155,-0.21884773244925312,0.13096757007512252,0.4949078628312406,0.23246684447622448,1,3.21875
-0.044562216468167826,-0.3221713718497287,-0.7502022477504461,-0.6516148604986097,0.3948704043691459,-0.9388571112095153,-0.20481183174029297,-0.1543153876315039,-0.2871805675850166,0.6860220291831465,-0.631154082038323,-0.5314072276933464,0.42738558964654194,0.19335523307286961,1,3.2265625
-0.12398142356696572,-0.6770798877248726,-0.828309251210176,-0.756867856583507,0.02569862042155001,-0.5154484528712798,0.03495814167929497,-0.13314410662450335,-1.3299933130320145,-0.31633539935148874,-1.2817033075701614,-0.5752114688748837,-0.19252824013164105,-0.16241381675918154,1,3.234375
-0.31729773697659047,-0.7683221615844129,-1.0389453528307064,-0.7002877152455353,-0.3233656130032967,-0.9259160317938331,-0.3183430263054351,-0.26120825280364357,-1.1412352061360542,-1.1804359800423245,-1.775960743451612,-0.468285377716102,-0.8188748221000134,-0.5558041810852278,1,3.2421875
-0.36011631688985096,-0.40692892795097885,-1.0368482359587379,-0.6826277632056876,0.11963126361827701,-1.0807530349239998,-0.15611889751805053,-0.10033876825092376,-0.21668719641962333,-0.7194382449805531,-1.331890089826096,-0.33065277561876677,-0.4841512770546132,-0.27213489277276665,1,3.25
-0.11175384173690925,-0.11712826143333205,-0.4498363041629815,-0.7111840220097817,0.3926941402356102,-0.1902812440848042,0.9186856641764133,0.6360062486996846,0.5359898295429142,0.6721837255000438,-0.289562172687466,0.19956358813009437,0.4024712397005024,0.35303743059970016,1,3.2578125
0.0378047951484778,-0.3139676075361412,0.31067326201180145,-0.6425498658789685,-0.38756639944751325,0.4883307811018542,1.4500035674491643,1.3722475610668647,0.8594840077079638,1.1294234470972428,-0.021844980036685255,0.6304671890425384,0.6254583698117682,0.3637075195805441,1,3.265625
