AF3,F7,F3,FC5,T7,P7,O1,O2,P8,T8,FC6,F4,F8,AF4,eyeDetection,time_sec
0.7364842440199078,-0.009635839904373646,1.1789448151480504,1.2357087191651532,0.5107125791631614,-1.8311972789262112,1.153276587301925,1.37599891918532,1.1661584553680204,0.3677721253845018,0.37255017890177067,0.07003741736386182,0.8969830622903708,0.8461421547731506,0,0.0
0.6302550956850886,-0.16488234567271629,1.3653249883527343,1.3279634666410634,-0.033854503866274865,-1.8153019984197132,1.168869975835045,1.1478670594804103,0.4078481797179093,-0.31954899594613884,0.21493208159617141,0.017004383994101577,0.7703346185276666,0.6184038215787186,0,0.0078125
0.6747033104148373,-0.09657167261927874,1.5013197130270284,1.568563596864502,-0.19994605301316115,-1.967426974646542,1.1707971550171827,0.9117505244491486,0.5306189701900297,-0.3801824220882731,0.2015316129421172,0.1531029901020517,0.725777122472797,0.6956111928282948,0,0.015625
0.7398049690400067,0.08641522297751249,1.5103227309917433,1.595197569108477,0.08306237775670947,-2.007019680479538,1.1566508332455068,0.7957021518164514,0.8129168794382972,0.22236771200193775,0.33538407651136004,0.4173719849594842,0.7679196245999113,0.9282663570751781,0,0.0234375
0.6498638925560095,0.06372912334088797,1.2962886221794074,1.4378836448415289,0.3490254458204756,-1.8242519319676773,1.117904982039121,0.560304132557972,0.45321789711865057,0.5595806073947955,0.44419496485205706,0.47184642921533715,0.7886558553112538,0.9700519713498131,0,0.03125
0.5065402566162344,-0.16785027816804673,0.9713256154638774,1.4467881383949048,0.2602520106222966,-1.7652714412719845,0.9893911151503141,0.15742403280148845,0.24031692490251993,0.155812620047792,0.3113764287264682,0.078307305375346,0.7053452575685674,0.7261381089938016,0,0.0390625
0.5089551804434379,-0.2579987532570672,0.7624341816762082,1.3896887879875053,0.11213596083574617,-1.9206306658286891,0.7795682624516997,-0.012444442932589516,0.53331749876965,-0.21153833063165658,-0.05176494424927801,-0.46399313258332814,0.5467783160058445,0.4568253211724953,0,0.046875
0.6111212402757841,-0.1141147981700633,0.6562191951116745,1.0307053305354656,0.14835943525192388,-1.9851661824843194,0.7160325240733059,-0.10137302919375597,0.16012460265901166,-0.1237370576253271,-0.26096314234216383,-0.5998606168045771,0.4727671704297473,0.4910859474617018,0,0.0546875
0.6636199356305367,0.03133880577580534,0.5936293294459092,0.7945704915758692,0.19693647516932686,-1.9459983188132985,0.8809200845280861,-0.38072330618180533,-0.6521984709809437,-0.033864417734681365,0.011871478563840252,-0.2870619467081898,0.6692576951008017,0.7532544841419876,0,0.0625
0.6731926461296942,0.08976259124377348,0.6031277419398405,0.9376231813602913,0.16416118524457915,-2.042524253405661,0.9350708723130378,-0.3702345857026519,-0.3986522316760649,-0.0937521395272908,0.4251229841295282,-0.05002341949612934,0.9247133625880414,0.8151181505366709,0,0.0703125
0.6278768756034566,0.026361037912420098,0.40722643351787036,1.010964550243042,0.06371417979767888,-2.164059854719888,0.729066888678415,-0.01775479613945637,0.19108621065830714,-0.18902261785437327,0.34206038958750606,-0.2958668871014104,0.7551357501460968,0.5536711903617861,0,0.078125
0.4262779495713478,-0.252795198982074,-0.231291750079539,0.6254964694085436,-0.15620932703250068,-2.0854056516858606,0.6386395815559112,-0.04141775014462291,-0.2900926823617324,-0.36237676598511676,-0.17721735542899253,-0.8722096500227976,0.25269398745936217,0.2740823750005213,0,0.0859375
0.182512456750128,-0.5020698081006549,-0.7538318293939501,0.11184386341232845,-0.3056546424777433,-1.9394833759070618,0.8046486558946228,-0.27479834314036616,-0.6408034583740538,-0.4561769993503051,-0.4856919335359716,-1.156591834142409,-0.002673765468588327,0.18075003955940952,0,0.09375
0.1642315100958649,-0.3824052426857364,-0.5666444215060479,0.021279189742365073,-0.1751419184812551,-1.8804092109130124,0.8786237591414754,0.07379269478456128,0.20072470190558703,-0.3419108801007942,-0.34165768576677114,-0.7492324314409685,0.10335711247883517,0.2659376351920181,0,0.1015625
0.32295816675605254,-0.12922345629868812,-0.19317488870826907,0.24447127649694533,-0.06469336590678948,-1.8427750868862043,0.8113852197936372,0.6589339874790976,0.7608526401981661,-0.27032916509983046,-0.10439423115798617,-0.24773461150651607,0.20535787643060616,0.4217112347926201,0,0.109375
0.31903450850711823,-0.17017798624627958,-0.3806160509279015,0.24373070264998603,-0.20355119449677853,-1.8442710678616991,0.8972847907229929,0.664721310559144,0.33562768020106376,-0.33381545823652164,-0.1207939973911857,-0.5185018919978374,0.11925436460149778,0.40115567182203227,0,0.1171875
0.12344625971774008,-0.39839579667195035,-0.7732670785084138,0.023254567278339255,-0.24471281581306858,-1.9257652664393254,1.0149944553768449,0.2897014151743833,0.09910960577501857,-0.2916260923924547,-0.3511816369348253,-1.197008795299044,-0.01403644088633899,0.23127239956686885,0,0.125
0.09151198569720699,-0.4437502459117674,-0.7096022525397339,-0.013552826966313906,-0.06429702406181707,-1.941408212581353,0.852150938739049,-0.005652833620242969,0.04571061256825907,-0.2068570003745618,-0.507368114312963,-1.2603604550749146,0.030778275448131203,0.2847117730448271,0,0.1328125
0.2724769889966687,-0.2956314610361903,-0.397865101188597,0.06810633982847529,0.018848278560579412,-1.8184346306885497,0.6375321933063134,-0.28252746917201127,-0.5136976727003314,-0.4424123042587699,-0.4127035506214872,-0.7516232336582936,0.2611731450164155,0.47501392482766863,0,0.140625
0.35862016937761676,-0.20997815307526166,-0.28678692575301484,0.011199559273089365,0.04137472355137492,-1.7055178005163594,0.7230648865785515,-0.4273620934044846,-0.6346664367063216,-0.7501698359953133,-0.10282097436052987,-0.4175819166565761,0.44848221868777355,0.4686088406328547,0,0.1484375
0.3881075416874595,-0.14735129648456807,-0.23688161628194593,0.06718207711983222,0.17195492192158232,-1.718722561728419,0.9206882499020037,-0.1960315207395219,0.21378134605108104,-0.3778381433514684,0.3309035779301833,-0.33900286083377756,0.5729351757254176,0.5719176228323604,0,0.15625
0.5920226196114843,0.15219097843201548,-0.03480456778304324,0.473613002006099,0.09602228272999908,-1.7957797381578615,0.927598123793221,0.10746271766490254,0.6431963969060053,0.44409883094121283,0.6465991825819125,-0.24009981590412918,0.8011811629184271,0.9762381761860984,0,0.1640625
0.7759375591188786,0.46203398722449485,0.09532618029037783,0.8275152603293218,-0.2962541043053957,-1.8314438819214416,0.8053670101133727,0.15578153444814072,0.2882694931329804,0.6667189251901047,0.5552972114346952,-0.23996978011906908,0.9664755686965755,1.0519239022974904,0,0.171875
0.6969544146659621,0.3229214595803308,-0.01628480106273534,0.7398998264363403,-0.43410660669342693,-1.8431405383966046,0.7192685481065114,0.2713614159722088,0.592993966514367,0.4156876966661284,0.2876244990682938,-0.3894864558361417,0.8516249110669243,0.6299786056993077,0,0.1796875
0.5214547646903651,-0.01339546508751406,-0.16861856530172126,0.4621762480665805,-0.08095695277969922,-1.8755946991232073,0.709304001228794,0.8035491858635492,1.6520411326899935,0.5931146557221615,0.2824047467537754,-0.4304782405528883,0.6755563359720972,0.4574817330872217,0,0.1875
0.4130885904648789,-0.07598089418531102,-0.31669799551109207,0.3082019161121799,0.10725418352875296,-1.852946928439114,0.727802277452798,1.288922349662833,1.7373650546341837,0.7701388770849482,0.26264636005028175,-0.47173308857008156,0.556633933613774,0.6511826585919712,0,0.1953125
0.2966402179625633,-0.10354331863610153,-0.6459632864136372,0.1406510858683165,-0.30547986721740966,-1.7946791975171457,0.7026098174451981,0.9665793760385493,0.3968031219849084,0.09438653474621081,-0.19612946458257066,-0.8587552493108328,0.2705505348956761,0.49285547025294135,0,0.203125
0.17617730721684582,-0.29363278463128645,-0.8722013823442425,-0.07088044992153596,-0.7190169318635956,-1.8692638697995525,0.6714894670824787,0.10453216265495462,-0.6594785695872083,-0.7364927364241814,-0.6267595151915948,-1.2566730065786305,-0.039195105115719026,0.025427502909625973,0,0.2109375
0.18292084432605676,-0.23852840449982643,-0.5188657167007366,0.03855262411892621,-0.5136587044907647,-2.002595824024935,0.7214824841971256,-0.2432874346423746,-0.4362974897837993,-0.7779327341098362,-0.5195641942915133,-1.083924143276156,-0.015236469128676225,-0.004772986676297509,0,0.21875
0.2748816210292036,0.03750075356782264,0.029244813553107908,0.3878436853627921,-0.128242438045174,-1.973721813740426,0.7810115578767826,-0.0033171385208163712,-0.15149083719494544,-0.5339927222520432,-0.2789603621421658,-0.6889135378218454,0.12703214382607272,0.3039854437029188,0,0.2265625
0.24474888683676224,-0.024670491762252646,0.046729320911259115,0.345864023829129,-0.25423786037527857,-1.8782036646902953,0.7348803763050631,-0.06097202681241201,-0.6300534008866331,-0.654274199849827,-0.2515120921470343,-0.6945091593723552,0.09656825467705828,0.3299961724943135,0,0.234375
0.12422507077820408,-0.2912048808523613,-0.19961354087841363,-0.021233636596961737,-0.6424637693880104,-1.9212142727014376,0.6195073480108712,-0.4285851129710299,-0.7966911720041074,-0.7088046511149982,-0.09075112161108881,-0.7490502898178519,0.17661408622426697,0.2536248400679965,0,0.2421875
0.17477194479403377,-0.21088926664542948,-0.052742438893864096,-0.022424968316058853,-0.6515838410306765,-2.021009002134197,0.6275519638241757,-0.24923600939577423,-0.08469418973441926,-0.342573856273359,0.25849855392572746,-0.41010019021940447,0.4739869447691853,0.4413404263699651,0,0.25
0.3387173351310256,-0.04492871917930308,0.19165585002394586,0.2213859878308022,-0.36433525788564664,-1.973103085913193,0.9592694557761257,0.5277312559951428,0.6428486046808627,-0.0061458163524865965,0.3497944123913482,-0.18400457102945772,0.560491823460272,0.5359516891982459,0,0.2578125
0.3207774307648279,-0.24231157238822706,-0.04060014529577126,0.11575051981200304,-0.3001243144792363,-1.7706327525125174,1.3470858020271375,0.9929774097464371,0.9229745082646598,0.08527705988914822,0.2143411486379365,-0.3902511047926322,0.4018290270274964,0.31997635578256983,0,0.265625
0.20237677624917572,-0.36322462849734344,-0.4282198246699524,-0.12574042701054414,-0.5161525999780024,-1.6881100085602883,1.1422439712815897,0.637608471491718,0.7741383850107514,0.23083827491705503,0.24640690525766754,-0.5062213104190304,0.4583539576896315,0.1724273974203567,0,0.2734375
0.18886643526812816,-0.10744571231700907,-0.5087109376659885,-0.09220398530443498,-0.6699435290579286,-1.910252327367799,0.4763048019437285,-0.04562176135082214,0.07160913998136972,0.2441661900324334,0.2641354052761462,-0.414270585243862,0.6698647376326714,0.20732474468513212,0,0.28125
0.10618016832113523,-0.1152888496584578,-0.5344607882646578,-0.05366347568311071,-0.6585991992312097,-2.134437098042147,0.25078461745570646,-0.402334771810266,-0.7044782834842986,-0.3459734171691841,-0.134732145756745,-0.5994806892556864,0.4939290421540129,0.17414641750191234,0,0.2890625
-0.08626717816623593,-0.5136728789218703,-0.6493298527922537,-0.18672831220915176,-0.6381324705213235,-2.1061836778628242,0.5560602922327769,-0.4124816402190925,-0.814030826536767,-1.1047638635712553,-0.6100583708974641,-0.9661424579125552,-0.00020483396681002586,0.07095822316442699,0,0.296875
-0.011981417658495978,-0.48531159835197984,-0.5146248923421877,-0.14049591761727834,-0.5330685687904653,-2.0655830062553613,0.7315166085778416,-0.21769676692451242,-0.2952429787360656,-1.094322425320269,-0.5559293833712892,-0.9579582613329601,-0.1331012191937065,0.09579627588169777,0,0.3046875
0.3281931168267166,-0.0075271717879811595,-0.22600473331077994,0.11589186771468935,-0.21438626824940576,-2.06491897899802,0.7850985641059101,0.20933608447212265,0.2481347971504461,-0.3836147472130663,-0.15507891944410815,-0.5758039815088035,0.2116120958192394,0.28506501846122884,0,0.3125
0.41339760512320745,0.05881693789770263,-0.2554070166575401,0.15977261541504278,-0.12427245700648877,-1.9421042903919297,1.0075056810975123,0.4682309155809865,0.24306573592112832,-0.04305503244983172,-0.01902368807729842,-0.3468623650821988,0.3959609302670585,0.39449697752132024,0,0.3203125
0.12476376946394062,-0.33948523935533254,-0.5475292977947618,-0.02723318800797026,-0.6219834746852281,-1.9773106549593238,1.048749679985677,0.22124516151214726,-0.06345423784871991,-0.5184252435389168,-0.19163924831913748,-0.558947246939817,0.15733355019991896,0.187922965392359,0,0.328125
-0.11329725103457261,-0.506132861636756,-0.7367429717795185,-0.07555873927344597,-0.9557260918921017,-2.226716988116639,0.7524156627924908,0.07881204023969152,0.24386499300320907,-0.8784360365560319,-0.2106240084322727,-0.8292249483066302,0.001332918997317038,-0.060739827905653986,0,0.3359375
-0.08812470105196683,-0.276490363106714,-0.7557778138036592,0.000533121804815728,-0.4843736987673945,-2.134827224191706,0.6865492019707321,0.42854372741097135,0.9117250461213292,-0.3267268988025274,0.16726868089846864,-0.6417856236624419,0.27576551514100667,0.055896511706716535,0,0.34375
0.05154253673483048,-0.06748834604761687,-0.652628797134669,-0.06712901732202867,-0.06244148418248409,-1.7405566037828886,1.0412806780976918,0.6161044727680758,0.8710290587977775,0.45946638122137623,0.6542635646482095,-0.25704748045317366,0.6611918608998525,0.3281269327776639,0,0.3515625
0.19410983786100383,-0.14592736355739327,-0.39773837624062985,-0.18523185408991677,-0.4001720113374242,-1.6975092029582446,1.2195750428251415,0.38989462183315726,0.4303518524527514,0.6396891412652493,0.8199750781357681,-0.15446466627590005,0.8087006514341888,0.43810906803775923,0,0.359375
0.3463056745579162,-0.2912645493888325,-0.04444093233754353,-0.10902537781517564,-0.6875008710195315,-1.9581750875786106,0.9393902649054927,0.2736767791597364,0.36391031054458123,0.5207277225785802,0.7122234913043641,-0.017240697130697626,0.837863235664668,0.5392938782961837,0,0.3671875
0.4659864725536538,-0.14091494281555222,0.21345696948058393,0.07713112690110005,-0.30386078471553063,-1.939260619083044,0.6955076188450565,0.30388997400003803,0.33688635395734495,0.45051207458651615,0.6360858493777349,0.29890291141830877,0.8833848154778409,0.6364634867450839,0,0.375
0.391457375845252,0.12111536333814667,0.15420881659209287,0.09715224187258463,0.11294783696028342,-1.5853910278422503,0.8010967419204694,0.1070164076166992,0.06317612107039461,0.11629220053528777,0.4274029317004428,0.04824544973907896,0.7008330715196142,0.4208274178526674,0,0.3828125
0.07286138984317003,-0.02953153414076941,-0.20118624627001297,-0.11290339716147575,-0.007902318743143781,-1.319489583345585,0.9247363454848075,-0.24155533578729108,-0.2162745573366702,-0.5381644748812824,-0.14514991398338423,-0.834974931966455,0.1859225954559672,-0.07243555363128432,0,0.390625
-0.1819811156802396,-0.46564424067852117,-0.46008637033852673,-0.28757784072082565,-0.32272803672115286,-1.310581606247949,0.9462026483087476,-0.34166146262826513,-0.4401066276501797,-1.076276595883375,-0.6088957603139488,-1.3186697497625446,-0.22644912206638923,-0.41231211460547745,0,0.3984375
-0.10574159974416175,-0.5215875471757666,-0.27448770205397777,-0.1586097712831998,-0.21490635679022196,-1.3351549550419708,1.1708131046959245,-0.026393618398460272,-0.3771563874868021,-1.053776485827872,-0.42999239402400113,-0.9752708388617897,-0.1437663427715361,-0.2280892214954426,0,0.40625
0.14381556168787454,-0.07226242174759569,0.21555628371968835,0.18496668446234074,0.20292501931311932,-1.354615976544338,1.384429898888984,0.3257282973201327,0.13147224423123036,-0.4359740201746326,0.12112354496179449,-0.3258264511561767,0.265394888702473,0.35900770989418074,0,0.4140625
0.4195706815153864,0.3837519310447328,0.6227028475756149,0.5479003730607708,0.18225157170389616,-1.5855297209667802,1.0823744932529573,0.22180154756765136,0.44332287423804106,0.12341636906576338,0.4436047338983337,0.09633319485439101,0.5981834753893617,0.7448770608147605,0,0.421875
0.739897894182517,0.5485869021109099,0.8085459924325008,0.9179979987332023,-0.2260189401590709,-1.808436381173475,0.6465389540898773,-0.09764386667170404,0.1473230902672357,0.1594490839294009,0.42004748616867155,0.05169153851076984,0.7182780579396159,0.7045632487129275,0,0.4296875
0.8751914923169782,0.5089328053710437,0.8053686945927517,1.0513240758940188,-0.2469872845255134,-1.5710004194180736,0.7710354060675023,0.010381097362722991,-0.00620738825690421,0.17077219721560677,0.40758529914943575,-0.17384624556164313,0.7759976111943016,0.6512989095630147,0,0.4375
0.6473403533564183,0.31945593200908395,0.5579393508547552,0.5955943762541231,-0.10772289306360867,-1.0874793345995255,1.212230868860918,0.5455477174172487,0.597700571583014,0.46982428552390215,0.6058999614231717,-0.06486705709885064,0.8173921255781039,0.674143493414012,0,0.4453125
0.3570045559225813,0.03327119529921462,0.21218420449255887,0.039628046358164484,-0.38457581617171427,-0.9215506018702958,1.3906466309298877,0.9398458418656191,1.197325242320251,0.6147380844619824,0.7319020175743461,0.1424904364675917,0.6924986609770928,0.518350397774795,0,0.453125
0.2780482932908168,-0.09866220648302036,0.1339544239215263,0.14540552928567946,-0.4355353429837977,-1.0600912994938734,1.3149879826129418,0.8824622739136512,0.9176857836013184,0.5054664097646752,0.5965092606669767,0.0023372035451978018,0.5004516046124193,0.38581779713529707,0,0.4609375
0.3085952312815992,-0.013317210253299705,0.2551597479882582,0.5020220771233537,0.09100104532155909,-1.0678059105103803,1.2235483179209612,0.6982525125113999,0.4736905152505344,0.41078853044336694,0.4827445007206785,-0.09616058059453102,0.4937444003671062,0.456813376232513,0,0.46875
0.29918031799614925,-0.007492259015095784,0.2073680960977482,0.36568728889992175,0.17659238616910233,-0.9209397896646611,1.17211365721691,0.821706627434783,0.7649838190354505,0.26261824646040804,0.48114070724140867,0.09480606687726681,0.49126985760429037,0.3736546902404349,0,0.4765625
0.17512353878247228,-0.15922180967491203,0.06970308950405715,0.033352082660848416,-0.4199657813995031,-1.076576953057801,1.0321219444460712,0.8486288128728856,0.7503301581703894,-0.07011043845170385,0.26296788333254345,0.0005178007880302871,0.22859084919611164,0.06536480832315501,0,0.484375
-0.04938510566521086,-0.23697705254719517,0.04103950191725045,-0.057133718866914464,-0.5582163083838032,-1.5053413819753125,0.698554532848776,0.15891704983070942,-0.4890731802031587,-0.5611912690724549,-0.16070186753667723,-0.48067200681679145,-0.07258010634902201,-0.07429240028423133,0,0.4921875
-0.13445005896750495,-0.21082072005444608,-0.03710090714646897,-0.0003594737535744277,0.01475871710996304,-1.5234219639396993,0.493252957047665,-0.4887261093641673,-1.3019783666563556,-1.0369282229236019,-0.34174177939673117,-0.6345735469819058,-0.1722139571467415,-0.04119154490349909,0,0.5
0.06971061764281263,-0.16456990094397683,-0.10432989646750741,0.2470921456284401,0.31396111153411843,-1.1817918110752246,0.7013242080231413,-0.12658788388791248,-0.4741607703585002,-1.0622841132142515,-0.1352265830161519,-0.22006165268527283,-0.1213118260742816,-0.06423028607305943,0,0.5078125
0.30349513409571943,-0.044554131279166534,0.18890144378625784,0.6299698226560835,0.041979636048596995,-1.3529219305480396,0.853213393600232,0.32475120895424237,0.25974638059673955,-0.518647748784487,0.16383402375409023,0.21230648812516345,0.07165016826961386,0.043278304765281474,0,0.515625
0.3873281498677673,0.13214328653455276,0.702109613350981,0.8016633374617589,-0.18893450107990575,-1.9197623082284057,0.63383544416234,-0.05239999951738917,-0.1195008113701935,0.15441441883831236,0.39157971895950117,0.2912645980829929,0.3773724950447604,0.4294721814025621,0,0.5234375
0.52269453108786,0.28942731920687137,0.94618891645619,0.8292111992451842,-0.25989495783389827,-1.8490863811570903,0.6741588005888297,-0.11264348879338693,-0.042047048508626075,0.6603025893767072,0.678115361740465,0.30902862288123045,0.6435427692310315,0.743493724656332,0,0.53125
0.6935933318712163,0.3890052232331049,0.881115947216577,0.8368168892347713,-0.5286787829418469,-1.1369291680354805,1.2848388648997893,0.7494823540793549,0.8145155571226186,0.8222145027785334,0.9876430699688631,0.6222254361912721,0.8193748441395179,0.7195408777675301,0,0.5390625
0.6028138206216402,0.3022328544362886,0.8270797082978538,0.6308298910854754,-0.7870502903907132,-0.7111777509365281,1.7634701923247316,1.16666759564599,0.9933615914459603,0.515267076190133,1.0467852271016793,1.028504210644926,0.8779107259375415,0.5707817067630953,0,0.546875
0.34674422475831707,0.04350348012004894,0.8377812146550347,0.44321948447160325,-0.624047765888202,-0.7553367687744506,1.721707456847897,0.7914299041649858,0.711920565332183,0.2372230895796333,0.824770288459325,1.0603621378738113,0.7342362797751852,0.4895278111209629,0,0.5546875
0.2072028368510349,-0.11828531483800976,0.6714711024962157,0.4879853818479386,-0.36265828333245154,-0.7394829601039601,1.5646980745293027,0.6930529317990979,0.8381068551332512,0.28530322825086035,0.5047618901282784,0.6014253232376147,0.44249027801598734,0.30768923926294467,0,0.5625
0.11576738196624335,-0.16632449931039842,0.2481931063858675,0.32014147830449885,-0.4263720532785987,-0.6751983616614098,1.4242154065318435,0.6325727064512772,0.4878182717518983,0.059667629451827214,0.1301519015846853,-0.03834067484458884,0.16490906042126632,-0.05701822470978989,0,0.5703125
0.012289172351622836,-0.29964147152932813,-0.20061386606497458,0.027111715813065398,-0.4602594701959061,-1.0199070801189134,1.0748279939501917,-0.11772982785395873,-0.6210531978796993,-0.3818016333274696,-0.19776555857811126,-0.4647184578976874,0.022759482351867463,-0.28437240442766415,0,0.578125
-0.06028222317160313,-0.4001905398050758,-0.4752746668020257,0.17229129252249487,-0.1813489951881293,-1.5776159376936754,0.6696068025088576,-0.8730331602120261,-1.175006211016721,-0.2738621125135521,-0.27895749579248025,-0.6272904005028146,0.040291540596770786,-0.20819774876404848,0,0.5859375
-0.2632458308859904,-0.3258912307131026,-0.6684898480107931,0.2944525635222917,-0.104523088951222,-1.6981424862765337,0.44618810839259576,-1.1354552842278631,-1.1415705427367937,-0.12758283830179692,-0.2638362595037066,-0.8253642109936534,0.07797476159294965,-0.16739306069000665,0,0.59375
-0.49257246050203773,-0.2803805335919725,-0.8812806556112149,-0.07244249510589396,-0.3969163123121926,-1.3652561831562464,0.34713617552667975,-1.2478073978916684,-1.2843616707320065,-0.7810721124003394,-0.4257421475225735,-1.049971211181095,0.004185191002312625,-0.3289454316460747,0,0.6015625
-0.3425887931199931,-0.2971082949667696,-0.9040430987490484,-0.11210006033471735,-0.3641051632198049,-1.0129015898612468,0.431065672139283,-0.8858783425643112,-0.9025678129679285,-1.3269886622056641,-0.5623282973182425,-0.9006063126517486,-0.08607936587078069,-0.3902959591097409,0,0.609375
-0.02409067915547773,-0.12949977993990133,-0.5864031188105208,0.5157149939279323,0.14874911107762367,-0.7372812476021621,0.7250903762942658,0.04966199017058185,0.21281053734077884,-0.7685031647297584,-0.40454056838778824,-0.49034129720765773,-0.08340969273222419,-0.2428960883083388,0,0.6171875
-0.04585865542967367,0.13001854643205354,-0.22401128893381006,0.8949676618090319,0.469957506793819,-0.45103590391505194,0.8827230030160487,0.502024248760337,0.7361792154953678,0.045207350850715027,-0.21773792670268716,-0.39793306580731297,-0.059392046631738554,-0.10696913838080066,0,0.625
-0.1385653766701153,0.20351368392149352,-0.05164364012009294,0.7525312335446536,0.4087832484187431,-0.22707402429758314,0.8550541430308158,0.3083331388769341,0.6436583537498051,0.1425395566979186,-0.22341595877153952,-0.5156502639729863,-0.016387617089010795,-0.051015577152387054,0,0.6328125
0.1397583613175992,0.23123117350979983,0.17651416486197494,0.732667305795328,0.3437466937911246,-0.2252167304866097,1.0225518315687612,0.4805234053144755,0.9964101141678643,0.11484543827619074,-0.04914781582575645,-0.19967414448879298,0.24479388614190584,0.053071667064811825,0,0.640625
0.455138809141015,0.3981913974119428,0.5993179161526254,0.9197315593505339,0.42002738314823074,-0.47380074186449406,1.2432429703762276,0.8871112245348928,1.2250825709233955,0.6743974314647599,0.49149638374414134,0.47260712159965773,0.7300424098229162,0.29679782077342104,0,0.6484375
0.4341615359852069,0.40251149988815044,0.8469088388104533,0.8901095110496512,0.4422066841272697,-0.6679718345549327,1.0876681167667295,0.5601478934723432,0.38625499234052585,1.0982271808055992,0.8231134550358808,0.7779882963699699,1.007629270424438,0.5230818054397128,0,0.65625
0.32626277768872336,0.04589779465993094,0.6558949639606532,0.6508784393617931,0.1186378712857618,-0.6090049124782765,0.8536391316793269,-0.2385911740800731,-0.6543269277463,0.48621087136702584,0.5324861510411715,0.5113416341126804,0.7953154591412576,0.43370048860985577,0,0.6640625
0.3389274253613091,-0.2153266168492833,0.3569360756609482,0.5683612310434831,-0.3597536775357814,-0.6185764230309402,0.9914468683795037,-0.486009216191941,-0.6940209651658937,-0.42410055726348356,0.11520774694560361,0.188487714890367,0.503725570277191,0.19183862617413294,0,0.671875
0.3415962742924971,-0.008225284644912718,0.36611053591643544,0.7524117724947111,-0.3045472743445007,-0.7822402010237282,1.2002133589816666,-0.0759437531301058,0.06839204413938427,-0.3370223749972602,0.1905870591256001,0.21980987165853447,0.6115993494586087,0.24838542743174885,0,0.6796875
0.3093445839235952,0.27606932456704375,0.593099827927109,0.9045126555632844,0.17867580815773657,-0.743215126670209,1.1509299029665745,0.3137058414850579,0.6791216502906224,0.4223932004765368,0.6120892697861081,0.4691974055398224,0.8989922991180005,0.4355683866317474,0,0.6875
0.260631121906811,0.14581368618287444,0.7253280051707108,0.8051335555582274,0.26060547779427373,-0.6837047136900666,1.0740891615177115,0.42204494612422766,0.6776910748449255,0.6381872382457126,0.8055959893395933,0.5977838854354969,0.902049142728756,0.33703164497597815,0,0.6953125
0.11535689349505128,-0.2258183129492635,0.6630749482392307,0.6394600332279722,-0.028026119189323077,-0.9550360933129253,1.0177603304098808,0.5404059129653302,0.46063233321925584,0.3194846357661479,0.5774459920669194,0.47192121095786915,0.6551756152567904,0.15270290978190643,0,0.703125
0.024140458737937742,-0.31352321995782656,0.43725810701750845,0.6031284458052862,-0.10639055416546794,-1.0640899926424057,0.7438822934517574,0.6735751555862594,0.5134305165396649,0.2767881087317502,0.3003544569547737,0.24359098211480965,0.5103415733177556,0.15876715699165692,0,0.7109375
0.18931673032026242,0.0426707191236342,0.21797434730741821,0.6898566262539052,0.08986019104792994,-0.6544911842049947,0.5217406796890098,0.5378197978229483,0.6501143102710507,0.4932299151915212,0.34810655255090295,0.15600924446309106,0.5684010922980742,0.15736565818357975,0,0.71875
0.3515400409765078,0.3895247030706217,0.19995882066187032,0.8841589150430849,0.42358315134481606,-0.37587958781070197,0.7733414584841802,0.2985113299290419,0.5041100859452192,0.38162400828976767,0.4711587745722968,0.15041723222483988,0.568931518731469,-0.02548714449611318,0,0.7265625
0.16382989542379764,0.22543364440012967,0.1550760928687794,0.9532796800053938,0.49651748215233715,-0.5803876815453015,1.1666473591749296,0.25952281574390323,0.12451958959211723,-0.20478958393130958,0.15335631420143303,-0.09448917736055924,0.30704176972730485,-0.2817152537214803,0,0.734375
-0.14593429264249322,-0.17213668831237808,-0.0643399967873583,0.6467121180128088,-0.12440320247017715,-0.7773637470206265,1.1358721636104192,0.17752264900038303,-0.2503865337745838,-0.8935310849122217,-0.35333819296990265,-0.4138822203577435,0.04667227980261309,-0.360629227869683,0,0.7421875
-0.06912297733174078,-0.11420897672348922,0.11642371797781105,0.482140315951453,-0.6414334663582827,-0.8647130659206868,0.7758676528278551,-0.1548755495428745,-0.3418981270342577,-0.9902675664003178,-0.21224820672950123,-0.1250010931293875,0.2263049914618402,-0.040786939719588314,0,0.75
0.3742294004999634,0.2996720881772848,0.8536559189484504,0.9745414525539178,-0.2080369088805475,-1.1018108694746036,0.5146301315434576,-0.3587664346323363,0.022185705354293508,-0.17193390864886215,0.543089043000321,0.7130872480794537,0.7206450829964509,0.4173674529486811,0,0.7578125
0.5629815728043401,0.3448903602983095,1.2032402805031828,1.3447070200273477,0.12834030350345382,-1.194027605279091,0.4982166795692318,-0.15465196178860807,0.521737841126025,0.6400020316067748,0.8835150339654712,1.0508459981122409,0.8960847356723692,0.4442635665828913,0,0.765625
0.20692416965151222,-0.0526262448581544,0.8006983933162034,0.9000083740587729,-0.39583220452867135,-0.9956011318736679,0.5882643455529462,0.19684683217848964,0.6685796305140873,0.4928097189513728,0.46047830283762714,0.5283212600745512,0.5708802520520392,0.08476924689102265,0,0.7734375
-0.10891146617691835,-0.29209970996691653,0.5163758743748108,0.5089029085361447,-0.5049749968107997,-0.9638208793064101,0.622503632091268,0.3642340003471483,0.4631418494379291,-0.0009209622147138348,0.08926166218253584,0.07453192087798469,0.2817508148542035,-0.13106370547866386,0,0.78125
0.11135174053421765,-0.2083958163431205,0.6989235811937347,0.795763621823931,0.20147790618454445,-1.022893925958595,0.6579193591183035,0.36360317709209344,0.27470913502162075,-0.0662717661438948,0.20940937513983127,0.22973145702591855,0.3467073852130656,-0.09534670891111546,0,0.7890625
0.426589996848307,-0.17186053791220166,0.77788165136318,0.972025539653072,0.35388246189377626,-0.7725327473868161,0.8051210774932167,0.5011554891327394,0.3777614731794023,-0.056931010946430244,0.3610651928567233,0.4627632885967093,0.4915557099680931,0.031230250127722473,0,0.796875
0.33405636012551204,-0.24022519829717473,0.6929921880288753,0.7350290764170608,-0.09701405057413721,-0.630468639043897,0.8710510614866926,0.8521930205033769,0.7238323051822146,-0.08229061056019853,0.41807984604807,0.5061400440208483,0.5873842431102079,0.25878238772103396,0,0.8046875
0.10793997303172172,-0.1770723553645346,0.7153130603301636,0.7300440861562587,-0.10409445995045195,-0.8911032216577075,0.7166275183820745,1.0378451254506043,1.0124832035547446,0.15762898297105293,0.6877764023769353,0.6355556592301043,0.7411385392258386,0.41654449540275473,0,0.8125
0.11603323707916972,-0.07367669514000882,0.5273547436048133,0.8893257367520684,0.011846839994451606,-0.9489156677297932,0.5812571915043384,0.917910896277015,1.0428360508812877,0.25924049234592955,0.8919766774598241,0.6867247208588266,0.7533187663058666,0.25944342177320767,0,0.8203125
0.21825712882249895,-0.13512449357657297,0.07248287266195577,0.7181978566719686,-0.10963361218940344,-0.6773234418068131,0.540227273462211,0.7503115045817476,0.8036985103173758,0.0344887501936764,0.6608621153919265,0.37616505798121846,0.5051335382850971,0.02846710813309909,0,0.828125
0.18992136541683083,-0.2516332759848244,-0.15024375895681358,0.41731608773334894,0.27286173821332566,-0.6422180578673731,0.44326605954735204,0.4989853074923576,0.35193734307000224,-0.0068415728059601985,0.3844749646482271,0.004736251305161811,0.36323253119336557,0.009058557448365841,0,0.8359375
0.06559999928211105,-0.2804033252062337,-0.2810019970206274,0.20215020879177145,0.8159529658087551,-0.7989544738886282,0.4190913585688007,0.1045775067821203,-0.08619596497195588,-0.005710928705814778,0.3600874083786743,-0.21318895983975442,0.4597422046858828,0.008606538049643443,0,0.84375
0.0013382038212364877,-0.2365245723046989,-0.6131220680383832,0.024600477423940788,0.5220966450312878,-0.7716352139000029,0.529402543448892,-0.03639196711700553,-0.28597116159276526,-0.3290696098119521,0.31926285048177605,-0.3851350328822096,0.46270573729941783,-0.07823477005971428,0,0.8515625
0.06165142007968889,-0.12894811454334226,-0.6003834737599887,0.17123906456798585,0.19474550785004596,-0.6877619889281394,0.4895314593050042,0.2111974043533953,-0.24505296444972427,-0.40113716607585465,0.28665432799088836,-0.268707440354264,0.3333512548930888,-0.055967349180597106,0,0.859375
0.10214939336817454,-0.06434755653084913,-0.1817464184958822,0.5332806620808056,0.6090788234184036,-0.7165227331965679,0.27986586665712904,0.46838061166916267,0.016096649810173686,0.02644767730860536,0.422784948493089,0.16646227287020965,0.2893744913479908,-0.028067158488534364,0,0.8671875
-0.02107299508850088,-0.21301242386005256,-0.26225720367394667,0.3894340275928886,0.565471633198656,-0.7927387158543577,0.1573656109278982,0.48187545782758057,0.26911516006304714,0.1111539441593536,0.3849625560313494,0.18156128568561905,0.24000040369660916,-0.23070285328949655,0,0.875
-0.15455644877029845,-0.40972578370500484,-0.8454464932303081,-0.09797264090837363,-0.2802754189969843,-0.9298748098658073,0.1258438441564122,0.19522192361468677,0.07586265690027189,-0.3216053106283748,0.08798528651584246,-0.3854258869749133,0.10271623729439264,-0.4063957209758291,0,0.8828125
-0.08241668419351605,-0.34838558739644215,-0.9673691390292252,-0.12774408015287506,-0.44530077594155226,-1.07087488966937,0.1641838562505573,-0.20678539488858558,-0.36908390814747977,-0.482528180790111,0.02600259777513075,-0.6645945744932663,0.06921188923873349,-0.23415041418645138,0,0.890625
0.08583840636538613,-0.19382599115609633,-0.5134555221064566,0.08288201729055518,0.15698808735029143,-1.0252441316631802,0.38744073476078517,-0.22002237444869868,-0.5083140023289059,-0.42491010388919637,0.23450828767446508,-0.34912813778900265,0.13600780980684127,0.0062613532154024735,0,0.8984375
0.11066111402564727,-0.25955526183250255,-0.14772534067299317,-0.040244882263039364,0.17579407056863722,-0.8670086540046396,0.5747827931708918,0.11623292331309877,-0.4228593843459587,-0.6318081155817284,0.3225654372129545,0.03981918654935141,0.16877633298030376,-0.03528258566474782,0,0.90625
0.0061028142856434184,-0.3289094697149413,-0.07980928151529558,-0.1714185246984791,-0.24450742076607573,-0.9006524833977297,0.4304051373965341,0.15863980713497194,-0.2693660883600923,-0.5202478556048264,0.39017195471051547,0.2925559238900419,0.30088670681837903,-0.12267068476519678,0,0.9140625
-0.036928612716558375,-0.14665517622266672,-0.09716422842105761,-0.005058114031343025,-0.04837666991189902,-1.1154667948957562,0.2895213117167966,-0.011571740164231055,0.0812822717910243,0.17754210902419212,0.6491328874555965,0.4486267162710311,0.5477779478314504,0.019891918927272063,0,0.921875
0.08059515509376357,-0.01660751725722879,-0.026115135982399035,0.10770713884099828,0.4594359649293578,-1.1013717516952555,0.5694026552673552,0.21440301567108994,0.35081634223450675,0.5085772054655114,0.8506972335059088,0.4885597107227998,0.6544257977176009,0.18055829919346245,0,0.9296875
0.2899622027308918,-0.13096439297514484,0.21697255293000167,0.06358810523362732,0.4648683656611806,-0.7220297266414155,0.9492233408707497,0.6710240486158322,0.453321530251593,0.38330479279377977,0.8863844592378686,0.6206988630781904,0.6712333570032033,0.21369349671706367,0,0.9375
0.3805245084284171,-0.19752724325419238,0.40787243347419916,0.047622850088263925,0.22383599352377861,-0.4600749145986335,0.9789124209606854,0.8359843714607352,0.7785561520784569,0.5474522706154946,0.9448766241494319,0.8078242493489104,0.7847015974417295,0.2911727694588948,0,0.9453125
0.20243181639832536,-0.17191898833321725,0.19980111811375123,-0.06814138931136221,0.19866196179830087,-0.6846275372594541,0.7803755037027676,0.6870196485789068,0.9598650924832236,0.5905562350116965,0.8860184506089964,0.615496600785682,0.7806023836164819,0.34609606182400054,0,0.953125
-0.032110323972679364,-0.24880899844724938,-0.12555676238793712,-0.2135959371890529,0.18174055384411575,-1.0336730773403222,0.6353725641937799,0.42423501238330147,0.510757984743896,0.12121745885624824,0.5509965225475514,0.23453675851088687,0.5267239633113464,0.1689124962519538,0,0.9609375
-0.016660798294344064,-0.24275632790122148,-0.06256197409390356,-0.02274584203024673,0.09338282552037826,-1.049827404290874,0.6317085391272093,0.2437791522880587,0.033516296689556156,-0.09163121959934128,0.31618998300928164,0.24123873232234283,0.3305211059680788,-0.06839174528347569,0,0.96875
0.08201372894165684,-0.08478484563478661,0.021759189198932823,0.15291916274459832,0.038499025065316994,-0.9196991049138818,0.7333739684991498,0.21678438170641282,-0.09431638959686095,-0.07140153381226669,0.36452245697032076,0.33570159112247244,0.2844897750990513,-0.14806210634807973,0,0.9765625
-0.08123475589671965,-0.20251598115679326,-0.4003461089245801,-0.256653812934972,-0.29769688839621766,-0.9826414143023332,0.7796694361710151,0.1903593517534802,-0.1544372167159994,-0.5091160851388493,0.2867656592665741,-0.005752243266998885,0.1361354018072254,-0.18003318142865649,0,0.984375
-0.3595932824470602,-0.5540919278530728,-0.8536998006035766,-0.7168754411345342,-0.729752273023782,-1.0428321189242638,0.7129421281105415,0.2514414631887613,0.07008288306339777,-0.76669733625169,0.07528811836372154,-0.3182740887158949,-0.02994104651141366,-0.1978594870772596,0,0.9921875
-0.3763354878867458,-0.5072526139182596,-0.8381969343456898,-0.5842002180967464,-0.4473664407685531,-0.8612097714311309,0.6651029134623206,0.5215753211898343,0.5117391491390281,-0.19225360518156087,0.20706637801703615,-0.08816147863054302,0.10478023363038684,-0.06661742982865798,0,1.0
-0.14443990945461468,-0.10486886949528675,-0.6800444491918187,-0.28130807166456,0.13786473734757432,-0.7623475215327628,0.5705228665650378,0.5641546741457526,0.3945847627238023,0.30294504226010804,0.5184049820060552,0.25149347548695933,0.37083517595113663,0.09655850867213532,0,1.0078125
0.0365108762898973,-0.005734269302574368,-0.5091980426233678,-0.16710173782818533,-0.007085021608545352,-1.0009774984007502,0.29823637661636315,0.230328397833792,-0.08042740684360776,0.04813676868699036,0.49543672458774957,0.2942531543041341,0.3490858875146939,0.0721767393802775,0,1.015625
0.050192230505905586,-0.21061109281721,-0.13975170310489307,-0.10590532774743412,-0.313048001414296,-1.179971023127541,0.11576315953621974,0.13891056480642894,-0.015845732311610298,-0.33724983300291983,0.3681243662214221,0.2973493301746895,0.17144740577119982,-0.015312305207729401,0,1.0234375
0.046060412615219544,-0.2159204577188768,0.024029639589488856,-0.26164095229183254,-0.02462586903800628,-1.005715885961563,0.2958513011829771,0.39323882461139087,0.3783208357453001,-0.3320399451434123,0.5438558657659993,0.4286315313236017,0.2662503888448502,0.06365797772843904,0,1.03125
0.06666928544914938,-0.05903808709739748,-0.30549066370843503,-0.5121987019087585,0.016483462991332385,-0.8492755981372424,0.5750025705769788,0.359741294526672,0.32882043824405455,-0.1017137104502234,0.7052050118078731,0.5348013938184039,0.5029819748860217,0.1599426958745881,0,1.0390625
-0.07735890224514624,-0.13765430315906171,-0.6060069535310438,-0.3609249776053302,-0.5577116438462579,-1.0076662246450288,0.5438227626736647,-0.07548635998025506,-0.14440510742178375,-0.004885343982082441,0.46911624101743826,0.47947267859775056,0.3967397841488936,-0.02262445396969454,0,1.046875
-0.33604304349802516,-0.4266089602383685,-0.7022676331326008,-0.19503023035054176,-0.7829322646751422,-1.2300719340229125,0.23194264705964399,-0.47433773136863416,-0.5191880467640443,-0.2798526687055801,0.07626089005404899,0.1676303498466899,0.003028528056437025,-0.3298033169447353,0,1.0546875
-0.38706599175162826,-0.5916726934696411,-1.0241548957853834,-0.5517668074405971,-0.5492898484486012,-1.276598873490233,0.038529335118767,-0.5661139428093691,-0.47788293377068014,-0.6678482559679272,-0.07506041442262631,-0.21082585355602582,-0.1361062392491285,-0.34201231467948195,0,1.0625
-0.28117029279844596,-0.5902006920030263,-1.446059553210444,-0.9047146085372585,-0.6011806028288751,-1.2009566748593725,0.2585416370938097,-0.13272577509474798,-0.004629711707868456,-0.5832992738429403,0.08089365230672337,-0.27627802741044516,0.10738141158176508,-0.1528255870115077,0,1.0703125
-0.318178062088376,-0.6300889850128667,-1.579579107568081,-0.9376888446509082,-0.8739434617910093,-1.068813304682797,0.7170409014729581,0.7814948401149642,0.6512788595005075,-0.05165626433242164,0.30168925967703003,-0.19171003575938442,0.27088293041710804,-0.2135342774112136,0,1.078125
-0.3713009027583969,-0.6522394539108219,-1.601175646157686,-1.014966161194368,-0.9043228314630851,-0.9859601049098345,0.8843679101641474,1.2991531986186065,0.982356593972945,0.2794308136421083,0.2960076028053533,-0.2739564469439546,0.14082461715325523,-0.42053892467584864,0,1.0859375
-0.21597657722305205,-0.4636076908183997,-1.5877392425081156,-0.9009879239482366,-0.7104459482029447,-1.157408999839797,0.5104158996583463,0.7169520497457211,0.583776388029078,0.17598610226324835,0.15146338990194205,-0.2276131834069001,0.06379036039959292,-0.33453171161115997,0,1.09375
-0.09408459498189513,-0.2964474626954325,-1.3250440474681398,-0.39786213311009155,-0.535398531757257,-1.4838033259760657,0.01885442091598477,-0.21155395349406655,-0.23147831904434915,-0.07460681032888304,0.19766576078954984,0.0019827057364101156,0.16057882346824556,-0.11455141134977866,0,1.1015625
-0.21686150832302126,-0.43065320338706464,-1.1220463658867534,-0.26283024794189,-0.5703839548306273,-1.5693067768810507,-0.1300675593684505,-0.454499112680448,-0.6745344321920124,-0.4170981935168268,0.27431358204274886,-0.0972466011130622,0.1047051034540808,-0.1740705089336363,0,1.109375
-0.3133945223763839,-0.5350865338026863,-1.3132517325934883,-0.6752571288773614,-0.7372483480462275,-1.4373127928665332,-0.17463280149302554,-0.2969250787762941,-0.5850154630215163,-0.8350156537502315,0.0375594821723996,-0.3110520856752336,-0.07179172430604659,-0.33331510092296124,0,1.1171875
-0.14929842203197452,-0.28387187458566987,-1.471121665898694,-0.777692431680927,-0.7362297787049668,-1.4953493563362996,-0.3847110150847062,-0.3404797747853349,-0.47540049564521275,-0.9358000076014868,-0.16762464592353793,-0.02884961251252279,-0.03677653881901565,-0.24585705113694095,0,1.125
0.0507105974660267,-0.05976484047164861,-1.3248698127282146,-0.5014029914123534,-0.6536937377452838,-1.6311746692484532,-0.31174382423541125,-0.2492261544638124,-0.460271035399471,-0.719736463155105,0.012991232156905013,0.2959912079138215,0.03479241950495477,-0.09536504860508871,0,1.1328125
5.7320652574253234e-05,-0.20622106249197356,-1.3104807587054037,-0.5523989034936627,-0.8027232758162884,-1.433668739597445,0.18489683149877106,0.17477710608849656,-0.31418878427198743,-0.7034137768655586,0.16155835285405137,0.05797894303885032,-0.10834332710664481,-0.1597550906823096,0,1.140625
-0.15148409154007558,-0.32759281671527246,-1.5084072795808652,-0.7695777022805668,-0.976438108194312,-1.1573621343898322,0.3449866072941461,0.22304508256083344,-0.2597975986792951,-0.7875585068872074,0.05250047693156025,-0.21840264983670504,-0.1601607099402239,-0.24391389423763993,0,1.1484375
-0.012145928181439294,-0.04583911424863308,-1.4480558983492464,-0.5929776668590769,-0.8577710992955526,-1.144797651726918,0.019050547649574395,-0.23528985964658844,-0.35022485159381544,-0.539648420016807,0.05309327553619591,-0.04565131169980829,-0.019576426804112198,-0.05909632962991293,0,1.15625
0.4469761029543685,0.3434095466147049,-1.1326839133117714,-0.30607922596400494,-0.6918860085658901,-1.081442668449564,-0.012363811948472386,-0.2521507408252587,-0.04178593916068399,-0.28127067159720476,0.17658354410344862,0.1822834142992956,-0.015153353169302693,0.29055776499359875,0,1.1640625
0.906660956194653,0.6320817662264472,-0.8941587542793745,-0.13466028931257734,-0.6629852777779235,-1.0063768760568212,0.20295531806283382,0.1954131227294694,0.3662594957572534,-0.41808241852607636,0.18889990849970853,0.22262435877319836,-0.011576726703956665,0.5853783219944316,0,1.171875
1.3365196264616408,1.2077070436203978,-0.5862925740260229,0.44071570767596097,-0.4895901772753242,-1.433839045176359,-0.10934665886898758,-0.06587684351767027,-0.09959016169375855,-0.6457788639183976,0.24967519602555427,0.3288195884453686,0.29552625210365374,0.8864344459760365,0,1.1796875
1.970941087235598,2.0949091397873985,-0.08591395276567311,1.2985924521899184,-0.2312218535804199,-1.9474445511196756,-0.7419722605106893,-0.864614352046454,-0.8231435066971973,-0.6422638462756484,0.4750037018666955,0.5484280271665549,0.63691747459212,1.323223734468783,0,1.1875
2.636041515625911,2.657272237752342,0.15540932232360694,1.576764499638005,-0.2981719212896709,-1.8459351761581075,-0.9435060287399688,-0.8426398763390094,-0.6535781904807652,-0.5914090841877122,0.6672726220862053,0.6699623003146978,0.797992132587106,1.7576390231218921,0,1.1953125
2.939404414549174,2.8488580711831366,-0.0590020271253593,1.3818487428106416,-0.500232955601758,-1.5889933873683302,-0.7533026354011944,-0.3458021194908458,-0.47129734164330217,-0.8247475466705004,0.7211027212385435,0.6445424059567433,0.9538619630633969,1.979545530357969,0,1.203125
3.0591799889524522,3.252477549576627,-0.1661325233181309,1.435258970882447,-0.41065577067443565,-1.6109826280712904,-0.4792105719912874,-0.6212184882740113,-1.1276693120921988,-1.2491911276473462,0.6869080012777339,0.6956756032749105,1.0820659918884346,2.095074694505227,0,1.2109375
3.4204429791454127,3.7395254748560296,0.21185293802984706,1.6078932994195456,-0.30626636332087465,-1.4739390710824203,-0.13101345557590113,-1.139746628167437,-1.4995618337108776,-1.3532944047297601,0.6652606310685227,1.0119123393405836,1.123871913788701,2.3765335038042426,0,1.21875
3.8535145598224743,3.8296292990123932,0.6320794563161879,1.6091655012009025,-0.553232876260718,-1.2892852084454196,0.004087207671152219,-1.05536341174423,-1.197280613458395,-1.147560746754245,0.7561860894330018,1.3753805676753754,1.284381407989064,2.7718634677451988,0,1.2265625
4.030786258326782,3.86466614350526,0.7268643087199305,1.7650743507135815,-0.797181345585035,-1.5857912958003462,-0.2892700911483814,-0.9163509911696743,-1.1180119280124405,-1.145418113669353,0.937094067790498,1.5240588533501245,1.5854314507357994,3.0107884425827316,0,1.234375
4.190725148202221,4.253932027020167,0.8889286233268922,2.185977251005431,-0.6225861974915387,-1.9263642782804173,-0.44486293882964084,-0.8542673336146955,-0.9438574375152118,-1.0572158708994572,1.2405705185702218,1.7043921852394692,1.8867687812488454,3.1426835603770806,0,1.2421875
4.5203148920953495,4.609021516126949,1.3099735946906859,2.57247510629432,-0.25618135102481,-1.7966868735436605,-0.14071315248557478,-0.2948004114371694,-0.12149284905973214,-0.32713170650870366,1.7796484331518132,2.1364210928206777,2.263467345041548,3.3904886916184864,0,1.25
4.69037002333256,4.62271382451882,1.4866112307546129,2.8381881646071125,-0.07674790755271928,-1.6374463650065254,0.01629824142220069,0.3201532027913472,0.48932137359866135,0.3850259040235335,2.2912408579589476,2.4958707547403085,2.685845899062739,3.6398835051528944,0,1.2578125
4.63329810217027,4.570268197199077,1.371222163557026,3.024180133980015,-0.04942848110004929,-1.7430553359942829,-0.16258500483312469,0.2868660105113713,0.28336413376431646,0.30279031774860315,2.3556051962883875,2.581577182156345,2.844450493794367,3.664958415875635,0,1.265625
4.669297632840169,4.608184606741079,1.4307359895899838,3.0207137137596747,-0.0379007129172758,-1.7888065755637537,-0.10897859231937013,-0.17755199752372647,-0.30614324084643313,-0.07852573652099525,2.166823015685348,2.6333901740093033,2.738304463653087,3.59682484318087,0,1.2734375
4.794655364742395,4.60471083761012,1.5319445682234287,2.801565089601133,-0.042546913581150536,-1.6592400804904754,0.12907670344432345,-0.7201382821588236,-0.7980656538649472,-0.0942390890136792,2.2450927294547642,2.761019281101057,2.8288433431816906,3.726101591256907,0,1.28125
4.869957754774174,4.578723701723658,1.476700098078782,2.6359494475129934,0.10378747307286851,-1.4197451061858757,0.06112050933281449,-1.1566848802031913,-0.9423823162211128,0.11889414138994658,2.562098636455738,2.8729010856372046,3.2830363062641426,4.018447740370955,0,1.2890625
4.948328351357664,4.621018938920539,1.664672724699252,2.729700230805213,0.4140060163382541,-1.106295710486098,-0.11636136256041682,-1.3443511467962905,-1.0107315443792386,0.19684570455385617,2.7221517400076474,2.9391764423287365,3.650551682206854,4.14560382999287,0,1.296875
4.94545288697054,4.58641506847656,2.0651112962011045,2.8050605180727803,0.33082251331275186,-1.1002410893186652,-0.10211181870076193,-1.508476477992798,-1.4001694948798953,0.060551450928032685,2.733238275710922,2.984659580055563,3.684502792584331,4.082171041633215,0,1.3046875
4.824988099185469,4.345510673619175,2.1783467124758604,2.54890745366099,-0.28745206602507,-1.588953799360113,-0.11584007561307927,-1.6652956958720613,-1.5216076074758447,0.009935728542908463,2.922793523218903,3.1611038304140084,3.7864167583817645,4.20003792394612,0,1.3125
4.806011070924535,4.117006922213544,2.1070872708002786,2.2149251774972387,-0.623049776403379,-1.944810011921211,-0.1522873404779433,-1.4387214172384977,-0.9312557894745954,0.3579062781727165,3.2705112215342336,3.5027076105000097,4.1517043254314965,4.48909891708097,0,1.3203125
4.870045036363927,4.092377241696021,2.144738162149524,2.1701026620453345,-0.37535534818868016,-1.827797552711829,0.02759491405694729,-1.1049184048729583,-0.5425633937667029,0.7659921923282033,3.4467145940660284,3.644174441918186,4.392519161981085,4.520944213558541,0,1.328125
4.8201697469089915,4.012087368285252,2.131280974130516,2.243250644828026,-0.3486557602606673,-1.8161458815428453,0.20109438428650034,-1.1283166040628194,-0.8009822054978805,0.6263201349376659,3.3437159203002014,3.439257483377912,4.335969413750118,4.320958786438822,0,1.3359375
4.686015030927344,3.6133874474596617,1.9824842888493133,2.0366207867472217,-0.8004827194826479,-2.027946153744737,0.10217071905998026,-1.1674368265740276,-1.0027129894739841,-0.005679013181591241,3.0367050514971994,3.204524486307466,4.193741723589279,4.2552056506673255,0,1.34375
4.554760532886148,3.19457339708562,1.8525590431864691,1.6102331306053834,-0.9351688468147705,-1.880550377592736,-0.10045948561921396,-1.1643386663510924,-1.12573632369745,-0.5207281066924252,2.7203133978340945,3.060844882528135,4.142074704712345,4.362651654621454,0,1.3515625
4.559927482591041,3.1747892694202666,1.8553220819701823,1.4411779406394944,-0.5213234039831195,-1.6095337498707227,-0.2439563258919963,-1.5682619944331102,-1.3829500317722574,-0.3347655073821768,2.948942263913846,3.108476705818205,4.451711867081555,4.546443120371931,0,1.359375
4.821344077375015,3.325366485652836,2.0870182491273277,1.6515603604397444,-0.3162723263597645,-1.9006144491712718,-0.2808543077962221,-1.8330639545781837,-1.0292086830697134,0.6373488758038344,3.8705400179834197,3.633506765071707,5.1864545093941015,4.767261748169595,0,1.3671875
4.996663364196817,3.107792511094594,2.3504091157513334,1.7603628587005344,-0.6477998683178257,-2.324457930710577,-0.10616133355242527,-1.3302838979835991,-0.1515778125371488,1.569107537491592,4.5179994246330155,4.200583048971803,5.693549485394444,4.8644201894410815,0,1.375
4.719434467132628,2.5655787597545228,2.1770589584559645,1.5003429233706382,-0.9974046030048113,-2.160456096392645,0.1638094442715548,-0.8713173916863889,0.06531778524703935,1.582444074974975,4.282202629296921,4.064372434800856,5.554293055382273,4.8033967982284596,0,1.3828125
4.320082903593869,2.1017543687891798,1.7152584562931057,1.1902621771575381,-1.021978691349068,-1.7867184437969579,0.2589703228383187,-0.8861556467283063,-0.07757780290477216,1.1110647515387597,3.954002155217585,3.6788065047286147,5.319326481312382,4.796135714716695,0,1.390625
4.194370186059935,1.7513258097737612,1.602326124072845,0.9562099948436191,-0.9668271610262148,-1.755690352539963,0.1630247731528725,-0.5298119637719162,0.4119230557306902,1.0881870118192885,4.043820560329035,3.8101604043096775,5.334999324858678,4.8516238691445706,0,1.3984375
4.142314024946597,1.4086782003309235,1.6531820696429143,0.5361957684819907,-1.1055507298836618,-1.855168688289222,-0.024984567066552922,0.06648465233199737,0.8136656300170062,1.3593820605064144,3.9817364655624905,3.946256038928862,5.252826559390753,4.769888905494342,0,1.40625
3.964465853691494,1.177429204572405,1.176636592662582,0.10910926083108652,-1.3086627317526833,-1.8492734867923428,-0.2402471102930917,-0.017443429207243965,0.4121724300849073,1.3009969162019424,3.6734283019120433,3.48013292564944,5.1290497923292095,4.636573614555703,0,1.4140625
3.884959630874573,1.0771377050199185,0.5655387852772215,0.16573390753655692,-1.2441424207920713,-1.8298399525229274,-0.3058005051905896,-0.3271140018641141,0.01644547873723825,1.0949513227783032,3.7431764973652544,3.02394123923614,5.337844729006634,4.681338576803099,0,1.421875
4.072732725247642,1.0239513692882365,0.7885141224655297,0.546773861274399,-0.8936903449987641,-1.750015207471757,-0.18240164600689954,-0.1721176132553167,0.062155436581204045,1.342880792315707,4.257308796469178,3.2724461117793253,5.633620214538314,4.810991283402743,0,1.4296875
4.335772110608912,1.0589295503208904,1.5922662945201356,0.7659287723340719,-0.585151459279717,-1.5565650465483871,-0.1073906892866525,-0.16398392042951346,0.21105221120772402,2.0240935026178732,4.743318382557687,3.9798954226618197,5.661259262141088,4.843403257664741,0,1.4375
4.405522118222121,1.1509373536074234,1.9368483062332913,0.8097651813988412,-0.4943717287110838,-1.4365774520510144,-0.1070024818384244,-0.5473643192489109,0.5431488956708974,2.4200149057053286,4.895688759739385,4.444318700947348,5.61125560335107,4.821983036433697,0,1.4453125
4.241222316049435,1.0778914818655296,1.691116747193919,0.7135134035832222,-0.5484832810037698,-1.4777414767222545,0.04413098931450987,-0.48020144301039985,1.0838874305732003,2.1765815640062742,4.713843447852968,4.236124170382575,5.642757689789791,4.810416255357581,0,1.453125
3.9983810967716846,0.7340836776722581,1.4571320078293846,0.3564838769551635,-0.6960792718946255,-1.5289504088165373,0.2631729402968446,0.20258441075412845,1.503067418362929,1.9367495438199303,4.57092516137796,3.7174684042992316,5.631733208816957,4.823340265796952,0,1.4609375
3.8052071045277454,0.282967148295777,1.353596449221451,0.011919513126639195,-0.9224592567511433,-1.5136842027112392,0.22523001541537613,0.7241779124905735,1.6189253766272376,2.1366987459700955,4.721223425388812,3.61723680187527,5.620974599555526,4.857089575746776,1,1.46875
3.640130407076477,-0.10177201371942647,1.103587314081718,-0.11379030899922211,-1.2334381710991902,-1.6166393785094508,-0.09712163122493712,0.6883586941486433,1.1836915997846666,2.0717472455923103,4.7020730027462765,3.797376127524779,5.672593132826676,4.769535451000074,1,1.4765625
3.452204753391422,-0.40947368784327426,0.8149635374168204,-0.361042128721176,-1.588555216467212,-2.011747487606999,-0.44105314688435243,0.2548912684433767,0.1998987559911518,1.2583341456131885,4.2408316230029675,3.602807938431972,5.58054077773413,4.529940692874924,1,1.484375
3.3292132578794695,-0.6196732179411651,0.8083344321341002,-0.6996644339109089,-1.7461040700433759,-2.412203682153222,-0.5760224882278072,-0.4018889472210911,-0.6952650832656886,0.40444783382161087,3.908592597231994,3.2377210881591916,5.355206947058463,4.401781752663512,1,1.4921875
3.3399197542522594,-0.7016792271954875,0.9733431766297732,-0.6575385180797354,-1.6143841963554442,-2.375689956650534,-0.42713960997081984,-1.1196057271739333,-1.1807161138399869,0.18215898739926958,3.998462892867447,3.2500453096124766,5.35832701845224,4.466754644988113,1,1.5
3.3138390550017913,-0.7648559998839035,0.9612304385282241,-0.4347218180091734,-1.5106306023172007,-2.1048744052828665,-0.1522699113088027,-1.522953529629337,-1.1891343403943506,0.4748739126557533,4.169973211312536,3.4406793089615446,5.588018921076176,4.479143591317296,1,1.5078125
3.134380113653099,-0.8416880868552646,0.7838119335214541,-0.4929298853426095,-1.5860199686168348,-2.101691543760821,-0.011562677863945282,-1.0728261682496245,-0.17008516761612427,1.0230115669580209,4.311165233365842,3.450460023525974,5.67344761284099,4.366645424059118,1,1.515625
2.971262428538921,-0.8977287147429582,0.6893634015093374,-0.6304974327984872,-1.594127747671961,-2.2015655236084886,0.03815844653464655,0.16508379407191529,1.5058289979574873,1.6162479862916788,4.4584155767119755,3.3316465049440125,5.612624817836477,4.276961200284345,1,1.5234375
2.8818198723271067,-1.1191350295692775,0.7164217123173846,-0.6641198076474102,-1.4011204973107227,-1.9293621014338824,0.26426021424608054,1.1353731795990445,2.259152727109583,2.0205170269694372,4.465322584814204,3.1633158065509237,5.638973894123917,4.185795173490684,1,1.53125
2.712092935821459,-1.4620977903155092,0.7059891118222,-0.7457974148259197,-1.0992584362258577,-1.3894640892214951,0.5886443346733381,1.224084592906492,1.9944763705918254,2.2598858807160274,4.35531197351615,3.0234409472917627,5.649340891337584,3.954980132903291,1,1.5390625
2.5147342189104833,-1.4637052851251748,0.4923618230400431,-0.708458407604632,-0.848866117801461,-1.015958428012249,0.6360255357085419,1.1002739473008596,2.0173467716848332,2.393363853373187,4.2783010020137695,3.044277069577331,5.523079963364709,3.689478545487216,1,1.546875
2.42325853173392,-1.2129027176503353,0.11065802932359506,-0.5376151721306602,-0.8630396216000396,-0.956040904603758,0.36748253685827964,1.1167491150103133,2.157970313472178,2.2774863506927083,4.230879337027459,3.1027152145708747,5.47048656297957,3.6323421286627733,1,1.5546875
2.3082706808987106,-1.3568347483169791,-0.08903030040290197,-0.748925880223365,-1.1121003554107838,-1.1327489713403234,0.10468091099655626,0.7509774932368358,1.5703180302634332,2.004651830133175,4.181025321805041,3.0019570633845887,5.5294157783630435,3.6802976579583566,1,1.5625
2.075198551843847,-1.8545062545281967,0.0017993464624849655,-1.3005013956089198,-1.3153322521779123,-1.447242498017819,-0.008317804221086602,0.1571547965013394,0.9943096448558012,1.8610178316702772,4.096602357641062,2.7967796781390737,5.448075211208331,3.490736730354643,1,1.5703125
1.8620279635299126,-2.1587670254425477,-0.11847604301264836,-1.596301124231976,-1.498103971069681,-1.7187366208086006,-0.022303935072777756,0.08908014361763403,1.1861066764100356,1.7814104410924072,3.919319247415418,2.557482692093314,5.226737467918467,3.141033038722457,1,1.578125
1.7152991687102082,-2.308972501869574,-0.5730835309872411,-1.7273829933167186,-1.7849242230941436,-1.7461877430692012,0.14013708779111694,0.5066512682755867,1.5134409072808659,1.593439692253613,3.751308548625414,2.3589655284486213,5.0161189787571265,3.0211674902987506,1,1.5859375
1.6076554704435786,-2.493821618652334,-0.6293297614022014,-2.0216564968624477,-1.779481972252161,-1.558944321705496,0.4413170396483157,0.8822276090091575,1.6634151324882864,1.5384394644853052,3.8061398936951836,2.503233620410149,4.85348520294214,3.1525167543960158,1,1.59375
1.6456804576560087,-2.4475476735990904,-0.14879511409773713,-2.0943951541009396,-1.270157656289791,-1.4348897662727969,0.5346377877184125,1.0654203961056365,1.9250569225543295,1.816569377063774,4.0371324231825705,2.9552656433826887,4.8741761536805255,3.2287328907349533,1,1.6015625
1.7368234734533303,-2.278751352294748,-0.07305176554634406,-1.8628356439407703,-0.9296726644591399,-1.5368819051724434,0.39478573131406974,1.0978274598064208,1.8946269551999209,1.944699714521985,4.048335248981304,3.010102213650652,5.003869488211078,3.0457703739080286,1,1.609375
1.561142445388126,-2.5203887404594902,-0.6294862714376245,-2.0554189751093896,-1.158084641608667,-1.6940599117202209,0.475965516669122,0.9999706359058161,1.3850464384865628,1.5546719640307767,3.687731976363847,2.487960753262424,4.854634667923464,2.7148772890264437,1,1.6171875
1.256565391243772,-2.94009881622293,-0.9024288580634156,-2.6368555614765348,-1.355626655578175,-1.7484079498940932,0.7970072944562986,0.8338275709633155,1.1724249533860251,1.342827201108978,3.4647976487428584,2.259939476387112,4.56721102322775,2.6430131848684852,1,1.625
1.2492631361468576,-2.9232136037968326,-0.6824014796253088,-2.7084003808263937,-1.167088738058695,-1.7906547125795882,0.8626143129962898,0.6424091573047688,1.3997274222054108,1.8093195367634043,3.7507754011055088,2.6165787432244603,4.594767357709673,2.897157915713636,1,1.6328125
1.374962300978992,-2.711405078592716,-0.6526197491721791,-2.367203693136568,-0.9620681375477348,-1.7778904883169748,0.6626341867532711,0.549502101455715,1.499887212116382,2.2329599554736608,4.112496100720006,2.7811559709678173,4.753667782560844,2.9718875388094603,1,1.640625
1.3005277308524352,-2.748105893425259,-0.7602341661758852,-2.390515134854279,-0.9034127351960357,-1.514882890135125,0.6398423539435544,0.807985625194139,1.7703259744902995,2.337859134340921,4.195750225353927,2.680012799783159,4.792814101258429,2.80711371306689,1,1.6484375
1.2864924654691272,-2.7808805692215257,-0.5092694766536435,-2.590752381122354,-0.9614659444430648,-1.195631446265752,0.838702286474406,1.4543870084903934,2.588136358184592,2.737248207551192,4.285967295975161,2.947072874153963,4.91183308157123,2.872648815238525,1,1.65625
1.4555839409668208,-2.637103441082138,-0.21245518252512877,-2.561709596411983,-1.2256931327178104,-1.1259395826940484,1.0122459699511828,2.096269476684293,3.1333609307206647,3.1163157165509863,4.452436342020301,3.258072885623963,5.018256586180891,3.0238505744198596,1,1.6640625
1.4005638990868876,-2.6123730164134247,-0.22188508054933512,-2.594083484384568,-1.3366406572177296,-1.0498927012228176,1.1727182351551848,2.3001815293570638,2.8379514703112636,2.8349591258645366,4.38881170809273,3.0318471772380784,4.855394362089315,2.8469283274873627,1,1.671875
1.1532820172516853,-2.7339459740060725,-0.22504993348286778,-2.6483244615290253,-0.9245948394330517,-0.699513909418552,1.4252825994189124,2.1192584063011353,2.4836317406416955,2.535031247657596,4.186399271557122,2.7515652874342855,4.641719716308844,2.6192165120818207,1,1.6796875
1.145497684710491,-2.7738440189876714,-0.1809567900153797,-2.4233579604123845,-0.6422615950301185,-0.509089876483554,1.6449213238617229,1.9416358401184983,2.6570093641404995,2.733578612726392,4.106112654230078,2.77739721999269,4.563477590239604,2.625833840457446,1,1.6875
1.232320965949467,-2.7909900483432293,-0.318617561022406,-2.326987054163387,-1.111655277695662,-0.8556138093097779,1.6659921393284047,1.8633129560403194,2.704338221112957,2.750241825344246,3.9653989952818174,2.6687670102503693,4.43552002844243,2.5972537089557086,1,1.6953125
1.0555204568317789,-2.9065313453359947,-0.43828507347267065,-2.6207921817350837,-1.6336952578009547,-1.2536600902686352,1.5470416465625372,1.6922232312274976,2.1006726285574358,2.263420097202486,3.6068963649840025,2.431523250029596,4.173789151156238,2.4207701755021187,1,1.703125
0.7947469555567899,-3.0039008097597386,-0.48555583553266957,-2.8138482037342736,-1.4979821474978103,-1.1301035343437607,1.4526908087231285,1.5521076097674789,1.6862263091057454,1.8887420364878298,3.3643192160364106,2.4369276593823535,3.941905813663589,2.295048988415875,1,1.7109375
0.6788065462868547,-3.0022659416835533,-0.7148180980801612,-2.7368311843224618,-1.2023419880208872,-0.7597316468836475,1.4433080021787354,1.8560361905565297,2.3954012405910357,2.0735703938146193,3.4864803642334907,2.498753113059523,3.9425299578167214,2.226889262049734,1,1.71875
0.5674581545716203,-2.9853217837302193,-0.9452264400367668,-2.7091272303688516,-1.265399641127157,-0.7033797765945626,1.4875002667141008,2.463518444513126,3.4105358826870384,2.5969943890431897,3.683587135181568,2.447939578436606,4.122837800133938,2.1208421089047627,1,1.7265625
0.3916126527675135,-2.9989518274468647,-0.9056977778054883,-2.760334744256171,-1.4259427852821462,-0.8965792097939467,1.4786132133722645,2.5061916919723624,3.1935364260462342,2.822864119259683,3.6488645544770177,2.458949760549918,4.11831636677387,2.026511959545342,1,1.734375
0.2897152759016464,-3.0025087474080223,-0.7667400562656606,-2.745433338129469,-1.504224637688634,-0.9604665106514247,1.316344410827852,1.760780220364534,2.0585434801916853,2.3922730473213183,3.485479090643847,2.4168103906865595,3.854494919411315,1.9801311364127603,1,1.7421875
0.2947865846559823,-2.9858188679582582,-0.6730768782618591,-2.720032531017762,-1.6077452047183796,-0.8898101116416781,1.2036523379364217,1.3510255373341342,1.715735970710695,1.8609962445261299,3.3374298479877793,2.225518667456003,3.686057630998553,1.9252075393962207,1,1.75
0.332315823819209,-2.9954119271540502,-0.6194143292693667,-2.751948239925611,-1.582695200771341,-0.8813228979365731,1.391078649118201,1.827913365489059,2.3657972626143526,1.9224612462014734,3.223991000290413,2.1685712738292295,3.6930127446495873,1.8690830399743552,1,1.7578125
0.3874365824055107,-3.0133549272617968,-0.6736075397229105,-2.7544159259667764,-1.3231580793801205,-0.9245760845796556,1.553578994244338,2.126480988191569,2.630524992245131,2.278489797133896,3.260542027762306,2.1977643022108206,3.696825290505012,1.8882581147532764,1,1.765625
0.44922365175280493,-2.9762012566921467,-0.745052342189936,-2.7026184274893312,-1.1251793384015596,-0.9120689776011445,1.3654765283111745,1.8494524763521085,2.282511545540476,2.2885737303753735,3.3482355885731945,1.988222120196983,3.7173160158222296,1.9281474902642461,1,1.7734375
0.4473321924518036,-2.9816708615278875,-0.6549134994680763,-2.738734998976419,-1.0974608525870893,-0.8408431857236289,1.2750438278192875,1.9200714632492657,2.2466960830543665,2.032053551827949,3.1434551080309006,1.7557384896505284,3.6956154504310854,1.846812847450509,1,1.78125
0.4025714444921337,-3.0618791208293237,-0.5061906961587412,-2.7764962555866255,-0.97131542068363,-0.7696634817263382,1.523247387136322,2.1741313724857116,2.3294221796310377,1.8790765760941008,2.8366340657415026,1.87023909180634,3.480901320130905,1.7201965960738923,1,1.7890625
0.44893961275378874,-2.9129375634617287,-0.5006808777439434,-2.548072862551581,-0.8079304284400787,-0.7302968017366993,1.537692813624482,1.7392951669290817,1.8947521873616946,1.8085660513773731,2.8346698886652395,2.1264318155682997,3.2337221111748002,1.6873299816257379,1,1.796875
0.5242193097641742,-2.5326789906526797,-0.6237615217161142,-2.3042286530835345,-0.9392882377034688,-0.6996780859679556,1.24442905973773,1.2721540774836582,1.5501681887853482,1.5957514828043697,2.759191386419847,2.1462863122020743,3.0291019216807666,1.5644131917699435,1,1.8046875
0.4014286385149864,-2.4079333951739934,-0.7278090296310346,-2.3804658177403994,-1.1433816062502244,-0.6808833732710837,1.232882475245626,1.5697605190818,1.7904899707980435,1.2442983996845087,2.271927822776234,1.871522728914987,2.636593705544051,1.2346544221107327,1,1.8125
0.1984235317572138,-2.4700077272078045,-0.6955890017057211,-2.3363599794268164,-0.9817661808487671,-0.7633972187582552,1.3821911923677088,1.8581940211905057,2.060912951218022,1.12016413447981,1.9994476874272766,1.4857427764295477,2.228414702490458,1.0307700133227957,1,1.8203125
0.227165093117639,-2.229047307013973,-0.5925349564742161,-1.9272176145806361,-0.723910259731419,-0.9273826058000325,1.217608803922275,1.54907661625598,2.08520320594146,1.3978926254266133,2.2491145316840515,1.2726775405774888,2.221720491278288,1.0618675239710613,1,1.828125
0.2939689400136458,-2.005158439466192,-0.6807609930074338,-1.8178981382489239,-0.8163876413512997,-0.9968862699434762,0.9878682818742454,1.133909993415579,1.8448695062498257,1.479709882195916,2.299614313501448,1.2676410708995467,2.360771975122196,0.9372385174249629,1,1.8359375
0.004315351035904221,-2.344245013291545,-0.9721835863221353,-2.2293290666033214,-0.9905309385696873,-0.9686637408950638,0.9274133260072108,0.8332374593695769,1.16241561900353,0.8748259490996436,1.8223048711389014,1.152217640861379,2.149039907400434,0.6186972657302758,1,1.84375
-0.37989941023821566,-2.7847407710280154,-1.0616162662249682,-2.475801113402459,-0.8349271981106721,-0.9568764541022062,0.790700808199078,0.6234200444948865,0.7118792859369463,0.2495515950432517,1.4464013353514973,0.9458883320816184,1.8060423317315268,0.5253662872143433,1,1.8515625
-0.3370824782015418,-2.6789754890783337,-0.8682391083385449,-2.2312442498797824,-0.5565297229689532,-0.8804546578725858,0.7339962705956788,0.7875385382238103,1.1626205505446388,0.3595216796298842,1.5493832522295312,1.0385856367528445,1.7867750449148163,0.6586407470676464,1,1.859375
-0.06823455412569145,-2.33568490660197,-0.8894443344864614,-1.9453372965559275,-0.5786611890415405,-0.7435944563757289,1.0649835648888646,1.1768621476633847,1.584543925803645,0.7066860185949807,1.6650180493897602,1.2269800229900774,1.9162377621571443,0.6014329661351459,1,1.8671875
-0.11174777478915505,-2.307647295516202,-1.2264332048683835,-2.0624644668678624,-0.8468154299492302,-0.7461031293689275,1.4072859282646542,1.3122824685597254,1.1993279396026288,0.5376233775292169,1.4154537615705614,1.0269553772747073,1.7777166577367765,0.3361600521688538,1,1.875
-0.3010090292461515,-2.415911237077727,-1.3001897242168279,-2.342813292441493,-0.8575493641078175,-0.7927804314707447,1.3792492696112566,1.2530627376712176,0.8392704383710123,0.236182233271189,1.2769487939650979,0.8370121377793043,1.5510042013027385,0.31737376934256006,1,1.8828125
-0.14811252657180743,-2.2748949476135802,-0.9270188347023617,-2.1729425032911105,-0.45737486257007576,-0.6791327463397907,1.1881136605706348,1.2295338396076387,1.12486891090169,0.562538615606532,1.7397478924840561,1.2113625929438818,1.7631456185137722,0.680582288702816,1,1.890625
0.1283777425030251,-2.1007336061365995,-0.6625457211468928,-1.6872791235187798,-0.25089714296076737,-0.5944367329524866,1.023419372415376,1.248794741083972,1.6353615049879193,1.3192767890449089,2.3180508761037353,1.6494427465494939,2.2859685065103985,0.9401078053825662,1,1.8984375
0.05188170111063916,-2.2441639829548903,-0.8474153995975641,-1.6842865544832695,-0.6351711481871591,-0.7317807162670539,0.8694980627568515,1.3377872052836743,1.8641596660762432,1.6712952153839853,2.343482606853593,1.5667297821498425,2.394181197933443,0.7575183158656112,1,1.90625
-0.20654942526570208,-2.50385775599731,-1.1480960554588955,-2.180979383420533,-1.051488615458177,-0.9500614870650839,0.766524408880518,1.2474314611944508,1.4107465862680746,1.3339574126353233,2.0338820565637956,1.29492676771038,2.000926154547787,0.4768035486352373,1,1.9140625
-0.2829410546025851,-2.553620549887111,-1.163640176285105,-2.392115108274314,-0.914414700488832,-0.9948146356183841,0.7363999576124509,0.7207775882998418,0.5647118216368462,0.881259803707743,1.9609469598460365,1.2115183339211895,1.8333725832064258,0.49534487719793197,1,1.921875
-0.23127674675248822,-2.476712693811838,-0.9745340128558774,-2.1611924693319167,-0.5365483288505857,-0.64248085831576,0.8338028302888382,0.3874701660677061,0.5254058098927195,0.8530849940653199,2.1260286215460966,1.2081434196614376,2.0996067747825093,0.6478226623268593,1,1.9296875
-0.22773810086330865,-2.5060301816718593,-0.9702774833032922,-2.1006607581508643,-0.5279954038811142,-0.16354786135880892,1.049603454228027,0.8217352066081219,1.3525500757527824,0.973945773314255,2.0557464425628367,1.1594019660042831,2.1480466998411747,0.5886256120804988,1,1.9375
-0.3253436016528429,-2.6444878129739,-1.2738547262199158,-2.330418606500855,-0.7899860399908759,-0.3179220783331731,1.0422228908751574,1.2459344243568167,1.6136843632764615,0.8135492143293874,1.6311819514779267,0.9996175795384888,1.7739368707091523,0.38303113986185966,1,1.9453125
-0.41916859302269543,-2.622469239707113,-1.4871931673510927,-2.205143929522894,-0.7235664830048115,-0.9791115495638063,0.6805580908393373,0.9204032980692707,1.0895945839327326,0.6647466678565107,1.4444268876542516,0.83065810763002,1.619419497757381,0.38019012473843405,1,1.953125
-0.2780164064600576,-2.3047281884890274,-1.2084273037584736,-1.6406897556342768,-0.34609526768891247,-1.0925391504431754,0.49417950811296407,0.5885056628129828,0.9588241042906267,0.8835782076593303,1.8343251485447514,1.0376858841800771,1.9199005936088456,0.6146245933790747,1,1.9609375
-0.019274509364750062,-2.125680711010035,-0.7089308882086154,-1.5149951021434167,-0.3508308527138882,-0.6621693360096271,0.781610415049311,0.9894662799119296,1.348248450895637,1.1388314482604198,2.1686680107805714,1.5474189853934115,2.0809640239217617,0.7038172041545192,1,1.96875
-0.0876285957795804,-2.4663196302317134,-0.668448009344328,-2.0727736571525743,-0.939806698040166,-0.678780060733561,0.9828763813429054,1.4494028346580459,1.4504673290725827,1.0326387690928291,1.88578862497174,1.6146154033375482,1.794942170688576,0.45696606986404464,1,1.9765625
-0.42372520345327075,-2.8601392194334987,-1.185789421260669,-2.4640070799572875,-1.528163308034718,-1.0646191510409628,0.7204453278356706,1.2296707456029898,1.2035325426701515,0.6470131178500033,1.3458619580870117,0.9772326315181513,1.4479418724597448,0.1475072125350069,1,1.984375
-0.5641018812410794,-2.7692827972999887,-1.5726138296115233,-2.312166501068945,-1.57591114743716,-0.990074143517184,0.6060264356916044,0.8098693541454737,1.0248060778839607,0.29347259395960984,1.0976038404694388,0.35792942001479394,1.3282776517159804,0.022110398033372995,1,1.9921875
-0.4968511083017023,-2.4810064776653302,-1.3420452629622326,-2.0147595800097036,-1.127157212281768,-0.6342699131992025,1.0730156111602192,0.8108278931870266,1.031305248409809,0.2791511217459203,1.1919017224466293,0.4425637094402494,1.3704592567748757,0.0377858837651507,1,2.0
-0.44508680965875896,-2.388631772723343,-0.8617818708222077,-1.7483156314652673,-0.6872563806915777,-0.6255569194654552,1.474302492636648,1.0169104048223694,1.2375877169272709,0.6462685717694028,1.3868062812479027,1.0446467220731257,1.5285197681529672,0.1589940909720122,1,2.0078125
-0.3600509125278789,-2.3350498786351928,-0.6696103586059741,-1.547548906801317,-0.578936996311942,-0.6827043599751111,1.4389389094342087,1.1715211634390899,1.5236047329373257,1.034481575033756,1.5739793822560717,1.5316152529307316,1.7521458582968024,0.3796518979675511,1,2.015625
-0.290445577823999,-2.189778306274232,-0.7211343422654948,-1.5633771828421938,-0.577050716792416,-0.3761717385542021,1.5490467739780291,1.390705961679191,1.5562716166434012,1.1585673077406422,1.8362211557027817,1.6005408176916132,1.8792622992117451,0.48428785056824375,1,2.0234375
-0.3832117348221108,-2.1211055343284113,-0.7686676503650359,-1.6571124126292596,-0.5118288327584704,-0.1285609259227249,1.841665557025153,1.539333641920761,1.4064855843475401,1.1356367018291782,2.030592279284876,1.3562622520136396,1.8635938438594761,0.3335487363744609,1,2.03125
-0.4258669735349394,-2.1296977348512227,-0.8010147981763461,-1.5388309991892957,-0.5202619136421001,-0.3112082466564942,1.733894809324453,1.4378630756526516,1.5048972328692234,1.1618115922959835,1.919075235994813,1.10273659026842,1.833898998352913,0.209545542478635,1,2.0390625
-0.2902264624160976,-2.0874059293190386,-0.7666639369880239,-1.3052150468943857,-0.6045638875280539,-0.5645433889289695,1.4022671779271123,1.324045526888487,1.6387554316967408,1.2162882892119378,1.7844152084237617,1.2062919660803801,1.84186888376733,0.3117357895103466,1,2.046875
-0.31784761126999084,-2.0949116649723942,-0.6808971984467863,-1.364131810256093,-0.8059213069729799,-0.6832450031134221,1.2414143408293792,1.2342192430217152,1.2314545145626068,1.084612711770326,1.8271265189577328,1.5176464926799946,1.7407311150156277,0.3183603374389797,1,2.0546875
-0.5866061418246182,-2.244413175439289,-0.8649800227412562,-1.7710027622340463,-1.1998113476620833,-0.8941266599815157,1.064568855065636,0.9163421527672077,0.6842810724438347,0.6503587712879766,1.554965226216627,1.3408100940527123,1.4364362297790496,0.04635296645788814,1,2.0625
-0.6967553514886685,-2.380817950700819,-1.2301403431958513,-1.9881425688598768,-1.3840549269052613,-1.1030203039890742,0.9359099726517345,0.6553516691750526,0.7916218214961711,0.17970160286321035,0.949385975210843,0.7182699107582764,1.150388547574025,-0.14431653873400582,1,2.0703125
-0.5846777112695671,-2.392391908264097,-1.1880141270423201,-1.763024837906873,-1.1201561386000423,-0.9900231842512724,1.1136378111077474,0.8637822316340089,1.204045016294249,-0.014826129519003445,0.7668773751700452,0.5136203291357919,1.1180036685679444,-0.10308909409060245,1,2.078125
-0.5519052904731634,-2.330080137242703,-0.8253567883902707,-1.5947517271685934,-0.8943447895303619,-0.6359273869569309,1.281891133084617,1.1709784553686,1.206690875432602,0.05771520016569682,1.0627839762114282,0.779313381057558,1.2090441301614907,-0.08344511823636994,1,2.0859375
-0.566375866902723,-2.258529948165321,-0.7347907143847089,-1.7277266731821503,-0.9193378560217603,-0.38187029069905654,1.2026763565783993,1.0897585129953322,1.0380865162244257,0.37632169422193934,1.293508521143367,0.8981748375286867,1.2819369463004333,-0.03403254320466648,1,2.09375
-0.4503432763097383,-2.2716748831795712,-0.8037798634622426,-1.782666133196401,-0.9056636796006885,-0.4010933739978903,1.1770348095273715,0.8490569294938405,1.1616474341038427,0.8841476728053719,1.4989166152234452,1.0078331806264162,1.4473679707451426,0.18993043801597576,1,2.1015625
-0.4136440394092883,-2.4077919026721686,-0.7054976272959451,-1.6789779678792174,-0.8932403091123535,-0.5871629624909622,1.331109836729046,0.8554642734898943,1.4735776534451928,1.119893885337473,1.7477649861702391,1.3435374126825306,1.5958151477534757,0.2502515245364641,1,2.109375
-0.6145737578296601,-2.53168362253843,-0.7071262728917125,-1.6975850261551098,-0.9635469482275939,-0.6589981777540862,1.4853335349718788,1.0786318519817832,1.6205423595350554,0.8170938983080642,1.6339886297635213,1.3818218018588726,1.4168912674391472,-0.03217020324187219,1,2.1171875
-0.736816835300874,-2.550387181119826,-0.8849595370111241,-1.7896518892080602,-0.8917414574286154,-0.4755738946796228,1.577614515114054,1.290522425663415,1.4675549841499802,0.5075812560229795,1.2715371232548096,1.0476607694646844,1.0835209998116992,-0.2153959470531895,1,2.125
-0.6258308060705117,-2.5173850128504713,-0.875250453605794,-1.7645385912812428,-0.7146740428716829,-0.21467629615479503,1.6511026181135915,1.4795263117081203,1.52652503658876,0.6831280722834323,1.2628873202775894,0.9934372899807377,1.07258179162522,-0.06048513740451154,1,2.1328125
-0.5778061866949461,-2.4569931549629533,-0.7518878660986918,-1.7085270010469775,-0.6339998056478251,-0.1150863694873261,1.7009984225894845,1.7010401424366928,2.1434334063702893,1.0032623686555893,1.5101120495179363,1.1976426735114196,1.3294211840412926,0.10130960489726719,1,2.140625
-0.6196697463920305,-2.3393946423663667,-0.7774216110746967,-1.6347221869480728,-0.5965637510903554,-0.21406330162950943,1.5842869964650967,1.637061401593775,2.2554381067853098,0.9893758931001223,1.5140248838972894,1.1935406218806153,1.4259359203265485,0.08791489598107512,1,2.1484375
-0.4731327088583752,-2.1438173657071347,-0.6957546989395954,-1.3383931361571961,-0.5821533534487642,-0.37640829549478766,1.2032929170112032,0.9989392323799421,1.1643590899622325,0.7653773459997765,1.4501067218140544,1.2246578059177995,1.3701091249142898,0.11489462091096256,1,2.15625
-0.2629485913169162,-1.9237452572316593,-0.3937209557579403,-0.9876213225943774,-0.6608113837950206,-0.4899684445890261,0.9120177088650713,0.3529485794249949,0.33349116867464806,0.5976751422048243,1.6321484157027801,1.5185416641300309,1.439987027214383,0.2441851392313045,1,2.1640625
-0.2812423365990938,-1.8736034695861667,-0.3393070331566968,-1.034516843291536,-0.7196007279399255,-0.5660522391329597,1.106807146270237,0.5199534819369571,0.7575520995308677,0.45959343896275884,1.654759529590592,1.5703114651998833,1.5046899249948344,0.2483206144380873,1,2.171875
-0.408600820047667,-2.106559096747043,-0.6599127265721468,-1.372915493945281,-0.6547961189771008,-0.5364545527090196,1.4923217766588386,1.247557536553053,1.2173090426682731,0.34223453807870075,1.2221621361735922,1.2328012235396908,1.2991281912133257,0.07599801918626667,1,2.1796875
-0.4708923997844155,-2.4060692134791677,-0.8722458209329746,-1.5649171551692864,-0.6286000574286248,-0.30813742732898275,1.5864836061152678,1.565026389799062,1.027481117040996,0.27307380590234914,0.8288175053414112,1.0255819362416436,0.9518165287736453,-0.06678324128877236,1,2.1875
-0.5062484381130948,-2.427233753151785,-0.7318517009253155,-1.5372370966906734,-0.7878209234763629,-0.14237508928157783,1.472135379268287,1.253907161724919,1.0204816290857937,0.1740277969785889,0.8093024666080674,1.0714581838683284,0.7290567848369869,-0.06412249546923302,1,2.1953125
-0.42284051051281424,-2.1123530926693905,-0.4573470016758061,-1.2876572398701467,-0.8724855553221459,-0.23111623498167602,1.4259652896180275,0.9290035132671384,1.2921089492686004,0.1596786268032741,0.9034779320164718,1.1482479579467566,0.7643848094768999,0.08538503763891571,1,2.203125
-0.11408882843984273,-1.775910111932045,-0.26220507382437,-0.8958679759017898,-0.5818093687015076,-0.2129906062021126,1.4741412874140603,0.9391691028825858,1.243289318303472,0.3601221846436659,1.017272357831301,1.3223737869430012,1.0619349211043618,0.3915956728751668,1,2.2109375
0.27216456192337773,-1.604699913894715,-0.09370886685282934,-0.7655054850431809,-0.18688681480612368,0.017771414641594624,1.4927798320041419,1.1753923449923833,1.1343494770652862,0.5507006216236588,1.2988963654374113,1.6280634104723632,1.4303588283772208,0.7946698797376851,1,2.21875
0.6375280042489753,-1.3879093985156208,0.26097639493261987,-0.7755807100916589,-0.10859434210620456,0.016936192922300485,1.3753451089857038,1.4755078132002781,1.2435915555263188,0.638545604074284,1.7186122907092864,1.960123629210398,1.735208106103453,1.1802851664337468,1,2.2265625
0.9772938759713214,-1.1412518199943138,0.7217160352512761,-0.43368929725863464,-0.2913662126530344,-0.21721167562041735,1.276374842170231,1.4694080471790705,1.0676071197920027,0.7953247855040588,2.1375951013393446,2.326142863245373,2.0196155847719,1.4294045212814412,1,2.234375
1.1174955651952097,-1.1629442738352223,0.8776176697290415,-0.15540184896169632,-0.5078416096980595,-0.3102630186504933,1.3994682694961043,0.9838781034312215,0.7117179168537056,0.8740168398960171,2.314010395757215,2.552624147370132,2.137060475686102,1.466989435197379,1,2.2421875
1.0648178249350282,-1.2216111169450492,0.7253950477274052,-0.3889748862742,-0.6600018935250763,-0.32904113855720313,1.42981434679181,0.687103935371401,0.9053599831566946,0.6522829687261117,2.08246378367471,2.459467331288217,2.0030111764862064,1.4638206748190163,1,2.25
1.1625496748176816,-0.9979217320800599,0.6817451205297917,-0.530860603478904,-0.7348961419614446,-0.41287589005101066,1.0830996022032515,0.9375956384056336,1.2207858429896983,0.33042852507630455,1.7984570293523776,2.3260958907774083,1.9506964149972061,1.6284563632928533,1,2.2578125
1.41568816420097,-0.8781032448616869,0.7326313259415,-0.37326096017063437,-0.7910286243325971,-0.34814093414166386,0.8282864656381229,0.9547027514542111,0.8606098964552591,0.17716086692515312,1.8004682800297533,2.271738869639997,2.0511751892627945,1.759222226701612,1,2.265625
1.493125620590693,-1.0008554981295876,0.6554762218624086,-0.38434148973269866,-0.7139578628506367,-0.12448090273577639,0.9902467185082936,0.488104535834864,0.5430184938287079,0.2058367977668692,1.8119492538227215,2.0160194692467464,1.974425694132738,1.6500923357157582,1,2.2734375
1.4894412627495683,-0.855345092236562,0.7757012661267927,-0.2376082574624137,-0.432870822281808,-0.15419316822364712,1.151398651620819,0.36711032101362856,0.8826819480596481,0.24798642237958005,1.7346148313064764,1.8018929316809207,1.8268567552766377,1.601989544771151,1,2.28125
1.676933261572855,-0.5269593173808964,1.2686683481628043,0.34448468201464877,-0.3825228236161415,-0.598173797233053,1.1540322205449167,0.6591138805796228,0.7924217004611505,0.10790113485545366,1.8778529100115309,2.125922098569198,1.9136520413559632,1.8274983584833127,1,2.2890625
1.8532730717959955,-0.5329586404841395,1.5199801718648926,0.5734574827251893,-0.6438036374634144,-0.9384402213633153,1.3189249082720065,0.619393425195603,-0.13885250380626316,-0.16891316073933796,2.0047760990705252,2.6075567140706157,2.010193614645433,2.002165451964753,1,2.296875
1.7828652486644836,-0.7014162302358734,1.2442127177184714,0.21740161857739565,-0.5575126222512189,-0.6699978727944372,1.573657418283841,0.32490001075255065,-0.5203260490635321,-0.38746257710193044,1.7235797082624618,2.5662273042899884,1.8669847108066715,1.8831722990873612,1,2.3046875
1.6063582796700702,-0.7933438144550966,0.8748488093878506,-0.10451871303627129,-0.27462570219023424,-0.13868186720579856,1.613797335363163,0.34888378362482675,0.129940942224298,-0.48391639377539164,1.4270571357139519,2.1290012824781757,1.70491755728545,1.6427092653042303,1,2.3125
1.4438672875652454,-1.0400868009055702,0.487728620609007,-0.42824264662523526,-0.5807323189333696,-0.009744920593022535,1.504929971325936,0.5877736478546746,0.6554758205500233,-0.3893237533959843,1.4748763004266325,1.8088256078198652,1.7265792585105117,1.4901347879914975,1,2.3203125
1.3533536675959044,-1.2506387562123318,0.09867753779159133,-0.8135145606711788,-0.9109407466582272,-0.2006515795379894,1.397443451858518,0.6696810420411468,0.5801548830271945,-0.12964348985955917,1.5685571788328023,1.8160193397583941,1.8362918115598703,1.5296060844244384,1,2.328125
1.4758396982681552,-1.0243532566024396,0.1992288348320065,-0.6402044692370841,-0.3924797976920016,-0.1298689366029855,1.3185479032130911,0.6357419797154946,0.5288786146609107,0.008755378495707464,1.591559294868004,2.081954497538389,1.8942765383155034,1.7392088570721744,1,2.3359375
1.6695167676042069,-0.7348522892814213,0.5633162667099371,-0.14477762861076318,0.11992481503496469,0.21556129846734076,1.3733090886004398,0.6615278722393214,0.7201222406952573,0.019637376281419632,1.6977035417476611,2.3051100245718015,1.8428134550456912,1.8131023050773816,1,2.34375
1.6269697103576806,-0.8402469616510023,0.46827642690723764,-0.30875092799170384,-0.2405047335994321,0.23073298900832495,1.517211597918389,0.6554337971595705,0.6836569064125749,0.14700466987023755,1.7596418848341844,2.2556506424536087,1.7194290880097307,1.540419620115745,1,2.3515625
1.5110270804660373,-1.0287956534382,0.2771835788584785,-0.8393200317364928,-0.6644178054233076,-0.2456106335182617,1.451248022330049,0.37266530302364,0.15737566428001296,0.1884362587593659,1.751453097446646,2.1719088705861873,1.6912262220870582,1.3155486074003884,1,2.359375
1.6359088514816287,-0.9665366076196026,0.497606927586606,-0.7642353742018911,-0.5012807095225413,-0.592866750428419,1.1663732986529391,-0.09964237894535043,-0.38316580364226943,-0.031297845121282246,1.8575083948340407,2.207674156965003,1.856314843013272,1.5112064705840036,1,2.3671875
1.7274736919682943,-0.903023595431004,0.5092795044604417,-0.45141102542055284,-0.36409861363948925,-0.4204647164905807,1.0322430579679078,-0.33196028801571537,-0.42609924954703254,-0.18592485730512315,1.8357767902382691,1.9652953930560644,1.957241482638985,1.6717473901971764,1,2.375
1.4137959826383644,-1.1161846185025113,-0.08928707676313455,-0.8203271976125613,-0.6550937954959066,-0.026355325803383067,1.1784955752229174,-0.25560438690766457,-0.31265238133935236,-0.2813206570856693,1.3758126744308856,1.3265087274985927,1.6886348910664823,1.3208872515440302,1,2.3828125
1.0129544595057374,-1.4369418165973822,-0.6554868905858118,-1.515569067086563,-0.9457329021186667,0.29758152485763817,1.398488315001745,-0.10607409822029186,-0.32176750450529207,-0.5339451799004117,0.9057996097692089,0.8782610620082686,1.3020542063541753,0.9112073115271335,1,2.390625
0.9612806324081629,-1.5324858400119894,-0.6531844953149467,-1.6550143218399336,-0.9001649859462553,0.4410315431739472,1.5442907064760727,0.23105561471243455,0.12177908118972955,-0.5448964831900465,0.9652078236055408,0.9615011474664239,1.2454934323575888,0.9409099771055552,1,2.3984375
1.0955608218679214,-1.362029072689472,-0.29834707435258234,-1.3443978311006601,-0.6814088912579226,0.30082157503988344,1.530312420325604,0.6913138372510959,0.892438531733489,-0.1698371732266414,1.3007532475634527,1.25059668259882,1.3907636302400541,1.1381365690519296,1,2.40625
1.1843764976046012,-1.115989042835963,-0.030584207028583537,-1.0850890823745114,-0.49997517411037623,0.12532059167661283,1.3602877585646478,0.6952628458815372,0.9517560739439138,0.055888118021646206,1.485493106839638,1.4697596532097223,1.4441300872715317,1.2506548379361975,1,2.4140625
1.304450121747809,-0.9346608035452618,0.05116269424111202,-0.85264232006488,-0.33695599590294206,0.20795304346149227,1.2802359438085882,0.2503182187656101,0.4955375542293012,0.17274731949549824,1.6505700446529799,1.6470183841294719,1.5526834962845533,1.3994822114824912,1,2.421875
1.367213596508517,-0.9400397312960872,0.08995113664723718,-0.7025820683842364,-0.25704202917480085,0.23520527581547473,1.3196540273488546,-0.08288534301042752,0.4276602063807133,0.45183556804935227,1.8881025830000857,1.7390309793900616,1.7593533479601877,1.469730746127434,1,2.4296875
1.2302060384777147,-1.1381824268761163,0.08192396354988185,-0.9530603188544197,-0.49383789911982745,-0.07067759940641506,1.1516614784892574,-0.23911243957841471,0.4347683776467659,0.39406533417703254,1.8762447879792037,1.7070268550241683,1.7423718991190182,1.3218649645277896,1,2.4375
1.11902578941354,-1.274561189156322,0.0008028153830524043,-1.3495819510335856,-0.8984771053320305,-0.3173904770348701,0.9255368195294806,-0.1551320577344579,0.2664362182836816,-0.01866626119201943,1.584954913571337,1.7041474503661689,1.4942952249790413,1.209126182352291,1,2.4453125
1.1836938695013535,-1.2395535246499807,-0.021479948130805712,-1.404962850586739,-0.9922396277674929,-0.19860758993767239,1.1286604096083763,0.4163154525934854,0.5047102255825014,-0.01469019331337979,1.416416240894063,1.7560172398337452,1.363237435792903,1.230268922687389,1,2.453125
1.2102384518667932,-1.2098626167265718,0.037679385075878286,-1.3267187784493748,-0.8264236295206004,-0.01730768658111737,1.4554578694936482,0.8589631952506634,0.7283970155546279,0.1877314784100196,1.4749717091911674,1.6903374707676213,1.4339910262163869,1.180737184134012,1,2.4609375
1.1249892758060658,-1.2234320395122693,0.0704882307074534,-1.4219154946689503,-0.8790604434961166,-0.088278044498116,1.3088207151922433,0.5889363730416705,0.25494836220363204,-0.13058046892860692,1.4938350570443246,1.5383792739180526,1.4784883554875448,1.1188223804426363,1,2.46875
1.092121786131732,-1.2210020664773682,0.06288041253101792,-1.4164463263702305,-1.0570841379794562,-0.25619234518104783,1.0350641483161536,0.3805647268524116,-0.0463255277462776,-0.4942048434613251,1.3999572345220486,1.511887303392479,1.359545664823824,1.1801008873112289,1,2.4765625
1.1316726593085342,-1.2241378679698265,0.04025717684480448,-1.1802774148824537,-0.8618254039536569,-0.22102681091381518,1.180218555114039,0.7266947520117927,0.28675170464177424,-0.2767217456517829,1.3716606411627934,1.6367021781677817,1.2515354176649789,1.2226763399703928,1,2.484375
1.136534562080274,-1.1674794565810565,0.015628634461293926,-1.0413331708428912,-0.41854080006505806,-0.009092182120990968,1.4362036399227065,0.8174120991849144,0.2853894285102346,0.09413073971274467,1.4739554249921425,1.7625062608254072,1.3770162919298896,1.2377286201528033,1,2.4921875
1.0579357329937977,-1.0973285705113711,0.014189245651749787,-1.140220417972153,-0.2931077342353527,0.18965353925554057,1.4518296329583407,0.5269916556998654,0.13294801829549346,0.23240984856367178,1.5841987585859953,1.7711250908346785,1.5670243198747476,1.3171290977747543,1,2.5
0.8989360971331389,-1.2448796909791675,-0.02096477850784036,-1.367392563739309,-0.5118364516833891,0.36520471759953405,1.5276923401132663,0.7537440372662035,0.8797463604007,0.3756670845827126,1.6244971500756098,1.6442360611158298,1.5606258189148459,1.2479584816870624,1,2.5078125
0.7519690855567189,-1.4797048693215658,-0.1406668874177114,-1.5749425377592885,-0.6401268730467978,0.5097475364878703,1.8430241715759572,1.349722054067958,1.7229341689484163,0.5983273881346709,1.645428748851216,1.5181582196072994,1.5296809156438573,1.0076740857966233,1,2.515625
0.7774457217447655,-1.4151031504122282,-0.17773852272223928,-1.4933898688511247,-0.5497037702839079,0.5257789950979401,2.0451252238568958,1.3898549090955272,1.4635996016363118,0.719311911400733,1.6663817288214502,1.622003261033326,1.6364994369363441,0.9816936095127143,1,2.5234375
0.9671624604786246,-1.136375923050131,0.03818754148164799,-1.1276917365451098,-0.474389652257562,0.4208139590157989,1.92170087539589,1.0679076077729603,0.9813285522473522,0.731417534819702,1.6608737414690213,1.9175592611036707,1.6466911720154345,1.1561687981776432,1,2.53125
1.0749224936274473,-1.0874615073015386,0.2826500309745644,-0.9827175124154344,-0.5604374043146451,0.20530482368149724,1.7129393087912645,1.0600496478890764,1.1664906918682045,0.6875601642197839,1.631769502625507,1.9969834805625735,1.4608382258298394,1.1380033936136138,1,2.5390625
0.9149198891014706,-1.3847889005882181,0.18609853671150142,-1.3027013614507215,-0.7390663839505578,-0.05775916587460672,1.6124548294856327,1.086340896613563,1.0623171679260344,0.49735374192767223,1.48067295037047,1.6788083557196616,1.2530747421054846,0.9280458647114774,1,2.546875
0.6279628404198137,-1.667170089227394,-0.1323046796365235,-1.6661187179070038,-0.8648639529123177,-0.10865905002103299,1.5351472003620559,0.8527397187477389,0.3045247792614106,0.12859974209798247,1.163898266868241,1.3587636568585233,1.0843701346731898,0.7587591996497511,1,2.5546875
0.527803751116466,-1.5560202150917994,-0.19767396633750547,-1.6163851796749902,-0.8040766361753351,0.03137636747310607,1.466077114673676,0.9076148229359596,0.3325839940941225,-0.08283038189612683,1.0339760169153487,1.3937995924087343,1.0232253357019536,0.6975175917791304,1,2.5625
0.6668009050159595,-1.2143088549813494,0.051199074555729085,-1.277386852329584,-0.5533913636131074,0.05316022557039298,1.5372148436058566,1.3703907436502065,1.408751248416938,0.21109766741827185,1.2926155174079483,1.558048738956666,1.1713109228264391,0.7654484870045506,1,2.5703125
0.7411573971209475,-1.1718003054739738,0.18608960270320096,-1.1806673814319801,-0.35886806971264784,0.0952449982500964,1.7404091305299736,1.5577698883132336,1.6867498432342913,0.5430161966716456,1.4225423033487046,1.4396104941669055,1.3038271803105872,0.8521228113272352,1,2.578125
0.6232687934892376,-1.4013825178262618,0.03744115565592418,-1.400883927742131,-0.45697052109850095,0.38138890923281304,1.939703919331887,1.363525678344535,0.7504706988761126,0.22520108994374574,1.1342668271224536,1.1344756575944785,1.2045595633450656,0.83633956665223,1,2.5859375
0.6527639531968488,-1.2932377392524559,0.005918893046213372,-1.339796701068046,-0.6160611247260683,0.5264980113686287,2.020414495474449,1.2424506138930869,0.44576424358651645,-0.2082784227426418,1.058989151661814,1.2060850254438018,1.1647778935324953,0.938971990899142,1,2.59375
0.9958028395287941,-0.8220936440948008,0.4057360347201481,-0.8601747279357583,-0.408111614643848,0.325816474894456,1.881413184793985,1.1089523406979491,1.086441111534298,0.0800837447077184,1.5207732626997394,1.7708951441640202,1.4125965595858923,1.219471197165167,1,2.6015625
1.2398424877597147,-0.6485410999224412,0.8593277012960198,-0.6002795432584085,-0.030973911700210178,0.21461234038126636,1.614669789451257,0.7785032603478751,1.0432403408305437,0.5377846597254574,1.863854787422702,2.139806296556029,1.626517306258797,1.2888016853917788,1,2.609375
1.1316237253426107,-0.8743879530681097,0.8028354478611177,-0.7301877885626641,-0.05990573628709317,0.34194024958866787,1.5616593679736979,0.650341204328761,0.45128540331842837,0.487343002476928,1.7511888695614402,1.9411403147528044,1.6004653201439898,1.1375267514413057,1,2.6171875
0.9858684419722279,-0.9973314709298313,0.3590833294089188,-0.82191488419982,-0.3450089695043471,0.45295042946896114,1.7858720971518462,0.91688887412205,0.7350374234932319,0.4502988484276924,1.645739313819381,1.7334709153858316,1.5493039054950766,1.1197447492463664,1,2.625
0.95305100483007,-1.0062384437498078,0.06686802752760165,-0.8666469659965863,-0.2817177881613145,0.5932384141156841,1.9036858478401377,1.1544694569684175,1.2394472728705788,0.6031100794107834,1.6490049700466154,1.8102680006282335,1.4749958986917542,1.0968357376991205,1,2.6328125
0.8209356213208567,-1.1432385299253678,0.014173271061272344,-1.0006829055253585,0.04292627140270515,0.8399870644500885,1.750531123035517,1.1200648813187895,0.7625871025151176,0.26684238158087586,1.3991081507088097,1.6534406137500126,1.1895220062403473,0.8379174377355025,1,2.640625
0.6906671052970648,-1.084040046175995,-0.038796100827942555,-0.9039125258130304,0.18999344120824502,0.8506408740821514,1.557266989438212,0.9510872337922691,0.31518295753006187,-0.374585685765453,1.047548397197339,1.1549632719804426,0.8845360191293952,0.639751309913526,1,2.6484375
0.8148403297235776,-0.6608961458052904,-0.0724336585735238,-0.5574226848756724,0.1644543641667919,0.4495563916411891,1.4057929267111908,0.7576977648184466,0.7989511156271022,-0.4341618154165601,1.0094900063996777,0.944293452334203,0.8486642068566469,0.6988428886249498,1,2.65625
0.9637185887268459,-0.4838041981412026,0.0017003696482026027,-0.5574593399623798,-0.0022575559256596926,0.1255532197534344,1.2989756176870466,0.8176693351781508,1.2548228656029647,0.061373026373725055,1.1949016954223635,1.184004535444855,0.9812437684693348,0.7949272433167879,1,2.6640625
0.8705744300495659,-0.8084150914578886,0.041196143620073164,-0.9793196296079087,-0.3537717811780841,0.28301127111767205,1.441295272820217,1.353981632187867,1.288840873483678,0.45067486765554227,1.34586486324849,1.3734345599891755,1.0787958745571724,0.8354382122716458,1,2.671875
0.7590278902864823,-0.9806895932780717,0.005152025961514462,-1.1062459673235299,-0.5272580789804628,0.46221722045455843,1.6889642242969969,1.6338914791856018,1.277917291415594,0.4699032477171453,1.4268192791787593,1.3332812713629563,1.127326377667185,0.8948716224299684,1,2.6796875
0.8044093076288859,-0.6774889390620684,0.05013466443082688,-0.7504087673898783,-0.3029127328028936,0.17937254974931682,1.5285496294990752,0.8145526276861987,0.6384867845600066,0.18305609491576705,1.3563532025004443,1.2972516158620753,1.0922380302304584,0.8983417121874548,1,2.6875
0.8300181028094854,-0.48305660564259145,0.1001677688556743,-0.6071940094034126,-0.10654309627433743,-0.07561048904647691,1.1602960924875692,-0.25805810296808135,-0.4778294658164198,-0.2045830939530695,1.0911203116945516,1.3122076411643357,0.8786121286378552,0.7931681259428078,1,2.6953125
0.7908147941405318,-0.7916832333540191,-0.04105691206251303,-0.9499950245276745,-0.26896526887976197,0.17325141829317464,1.3004353231735581,-0.1664582990774217,-0.5404507473422621,-0.4070010309548747,0.8752064914802858,1.3002301531984608,0.64012638827283,0.7303440416642688,1,2.703125
0.8263953674105001,-1.1036479526127738,-0.15312188516730457,-1.206716447306359,-0.538098554093294,0.4202989293414066,1.7223755095470181,0.6721100990568408,0.2666782983212969,-0.4212536566579872,0.8568529143003607,1.2650732649772412,0.6436021526139568,0.7937014918417196,1,2.7109375
0.9435034567027125,-0.858396367081913,0.10694502332205297,-1.0146109270476429,-0.5226176690287153,0.31401042622434416,1.691936594542417,0.9725849487275686,0.49554902690424424,-0.4277350316303569,0.8755979245395665,1.1751941011506943,0.7743933810851573,0.9003794415282965,1,2.71875
1.1425344585173116,-0.32152223452402606,0.5682159576525047,-0.6411214920926747,-0.21219158547742803,0.29350095597759873,1.468687552143933,0.848945710321151,0.5899404095511412,-0.3263804146948953,0.9676054149008794,1.183779528445224,0.8357180671578471,1.0976691994767334,1,2.7265625
1.4577783656223013,-0.06333396661330105,0.8462949866002687,-0.38709667292503347,0.026616943697222152,0.4159428539367651,1.5509323476978054,0.9956963233684443,1.3004485246879993,0.04306987059588136,1.3610056772809425,1.570631144356353,1.0368496167870962,1.4276244946448318,1,2.734375
1.6754404756856975,-0.06974267813014771,0.8649846612755077,-0.247713665129992,0.03065325278616294,0.3134895934422997,1.5527083189625166,1.0879242439162626,1.475794527851057,0.35793223395402,1.7305669229218072,1.9603087362698886,1.3471391354704905,1.545426080050092,1,2.7421875
1.5590457735189283,-0.048798594332194044,0.7045355098141881,-0.1427832208535213,0.0017010465805713782,0.2798454832162424,1.3317323693278837,0.7249073064490691,0.6106668272096325,0.13810383092938583,1.5023526553222175,1.6846669978622375,1.2453884843808705,1.234556182940185,1,2.75
1.321390254957376,-0.05616484882024896,0.49485919278845053,-0.1953637491779877,-0.019941255134210988,0.6071131650372413,1.4231982195827895,0.41759606721083226,0.10247625823508763,-0.3473773634789945,1.0204206789766863,1.1602862932674745,0.837524958851398,0.9780524517890601,1,2.7578125
1.3429124310577596,-0.19202032244297942,0.4836418937634137,-0.4341606376313673,-0.09691096207986113,0.6673575933059187,1.6875082740366274,0.5239426623588154,0.5135750137247534,-0.329743259761695,1.0684293157374851,1.3126368051536426,0.8336185513814945,1.1797739560305187,1,2.765625
1.5570034343256967,-0.26851567973594487,0.6881567604340857,-0.4675395834529229,-0.11765648620290933,0.17535856064947833,1.5959162124463209,0.6424324199129606,0.8153881834909653,0.12203791025004082,1.437430713785912,1.836796155356662,1.1540507749972277,1.4325812273001528,1,2.7734375
1.5742510251493316,-0.19885518308734598,0.7543347134715228,-0.24162479192234587,-0.1711943839412132,-0.0792779342654387,1.4438175428581108,0.5398663648418547,0.4898351011231888,0.1900147482331916,1.4543050062511935,1.7807643232967152,1.1461822853132988,1.2947169160759602,1,2.78125
1.3473411454000923,-0.1731986550313703,0.5494745922657587,-0.32869488354794413,-0.41350651268350913,0.26584594815819085,1.59082115238909,0.4930228264058657,0.20391917954283004,-0.15503136784689214,1.276555876086029,1.3185716734460262,0.9035675989183057,1.0672075072237375,1,2.7890625
1.280577585173894,-0.21161217420182268,0.4518390024943121,-0.6110038313146331,-0.524374223812469,0.5941943842891835,1.6996660435140685,0.6617749176969995,0.583980203414819,-0.12531767913815942,1.381674479431371,1.3637256300346043,0.9681772671379941,1.2080825027818307,1,2.796875
1.5445924697641684,-0.08240177079126207,0.6962033150840448,-0.33470459081535586,-0.2262260951092855,0.5922399228377526,1.5996413507939102,0.9237969066093162,1.261641662733889,0.38305035343204547,1.6564765629964038,1.9355809907328807,1.295297050388759,1.54539219379344,1,2.8046875
1.7328209491821054,0.11784817871801012,0.9372119190205569,0.15606595158512196,0.07302698184542077,0.5752498037978676,1.5520867859342096,1.1350094046364132,1.3602633574363996,0.5687121059202991,1.6578383652954087,2.1918883024485516,1.422772634724367,1.5828008992042606,1,2.8125
1.5320589342125555,-0.036051324229021256,0.8682653297600321,-0.03237012656147704,-0.10013506927040475,0.6030133954765218,1.5600962418681152,1.083414231874313,0.7686234059792674,0.026363322875061983,1.1217173876355697,1.8344050363514,1.1448682850931426,1.2778033110749951,1,2.8203125
1.2181005798855649,-0.4549668176789142,0.6777496958198992,-0.4816263580220194,-0.49346300120651565,0.4071657488443032,1.4426260657388346,0.6596617393427225,0.25737051187665455,-0.6351026996363061,0.268477741529184,1.3864877564964773,0.6911561837553244,1.00267300677186,1,2.828125
1.0910710791245344,-0.5755415190733042,0.5234263682350373,-0.36118626487959304,-0.525516127340476,0.13368052185422327,1.3203793535832553,0.3598121238368668,0.34717313071033845,-0.6643996146151293,-0.2973004394476821,1.1779034479627732,0.46930336506184667,0.8864531869186162,1,2.8359375
1.0400512538928077,-0.4258843564735611,0.2928066614841065,-0.12183519740912599,-0.22986693119771054,0.26181097534920655,1.389011626948449,0.672705674922317,0.786770849153143,-0.18355067457273191,-0.3549035258156119,1.0951685291317155,0.550749112176311,0.7688067734313527,1,2.84375
0.95843313674551,-0.5319571076040457,0.045736669257356734,-0.4629345702663956,-0.1767672811299193,0.6734218363659344,1.5320343388982256,1.036883138832219,1.1036744705014305,0.09155264941005133,-0.28975626494647144,1.088963320605328,0.5780240432468069,0.6652456036209096,1,2.8515625
0.9197771408522364,-0.8065229901440575,-0.042242585575905725,-0.9293718945495147,-0.4346808773679369,0.7899665903475845,1.5950287867634552,0.9040095563031137,1.2192124583017006,-0.002847336226504422,-0.3746348860279387,1.1178696035398419,0.40610114598906966,0.6987791689982299,1,2.859375
0.8792377944740194,-0.7738127307778359,-0.025955088606432024,-0.9031029129577528,-0.47101843492153794,0.6804867118258803,1.7052803397663023,0.9200572122901576,1.2854884589312048,0.025669055880924174,-0.48700784289546806,1.1248788245467145,0.3381215663158038,0.7715825414379534,1,2.8671875
0.7682654125847957,-0.5975241688024026,-0.010484955064625715,-0.7035950539966536,-0.27251906184217717,0.7398720183514529,1.9066029819294665,1.3216611211316573,1.1344952935716115,0.1825167583318558,-0.4899229517184738,1.2343401755456302,0.5042861263794122,0.744504200204493,1,2.875
0.6918646618213511,-0.7013480435317779,1.2754853561538043e-05,-0.7720755208292935,-0.4164799878251976,0.6781425651414997,1.9123687960439997,1.2010362589177237,0.62865101639538,-0.0787189370968014,-0.481503206031397,1.3460452111425594,0.6072581875101046,0.6674183558098516,1,2.8828125
0.7074136602587648,-0.8901276008622221,0.0029149515559476432,-0.9028589862897658,-0.8096268484500011,0.2695442537791185,1.646494590736089,0.6365285880080377,0.32507858957181673,-0.567835598816944,-0.6277936748188461,1.194749136380986,0.4911336168481447,0.6300933619533067,1,2.890625
0.7420329022021511,-0.841123662075886,0.04987953396100455,-0.8277990746600514,-0.788121802819537,0.06907281764421971,1.472152426222598,0.7381506802861092,0.7355083294686963,-0.5282806947493494,-0.8027645582129045,1.0459295477588606,0.41489226143654406,0.6520301855898483,1,2.8984375
0.7593012675738657,-0.769592344848666,0.14247085137230953,-0.7158269188345474,-0.519157368926049,0.24965906432877,1.5056500194829445,1.310215841208027,1.2700093234806011,-0.14343292094064275,-0.7924468633545536,1.152117344540027,0.4999815085833987,0.6888204006212344,1,2.90625
0.7406781935070385,-0.8653399962087401,0.12175251954449873,-0.7934417460976948,-0.6428901648550179,0.23411163342550553,1.409296896523075,1.2738376987399005,1.0295553486508642,-0.2274805749558154,-0.7804489842941817,1.1027076872797952,0.4753803704758639,0.6567636418019227,1,2.9140625
0.716771931182329,-0.8659466939432655,0.021272440650150777,-0.8730804026476415,-0.8702156700557122,-0.054223190249449466,1.1457715866943143,0.6980585249461806,0.28502868657321756,-0.6767912186921324,-0.9061101341441514,0.8349326434663111,0.30266592533265346,0.6090100432683101,1,2.921875
0.8222814793865456,-0.6615066912515403,0.07700146230566829,-0.6316484667036946,-0.6564104747721893,-0.18064845781127484,1.0473649486163994,0.3078273063421147,-0.005818382412809731,-0.7311738546835014,-0.8632348176599146,0.9128965658019437,0.3135878214854298,0.671763593034703,1,2.9296875
0.98665770560233,-0.5558928860301438,0.19566294284517347,-0.3326025244994396,-0.43660652581431997,-0.16261563438583496,1.0617839325700735,0.1918766898292213,0.23605666213175125,-0.3579324714400378,-0.6491479999071983,1.236852906649568,0.48129234728754255,0.7122561544511666,1,2.9375
0.9151723663064384,-0.688938052410115,0.10800285776708687,-0.48733130315926954,-0.6836181344937854,-0.1835712052965536,0.9542434462415476,0.18545247095118558,0.40697311031801386,-0.20035718959701193,-0.7076469058683641,1.167757392778201,0.4595107367507079,0.5533049109158246,1,2.9453125
0.6688921968118317,-0.8107421783601135,-0.06400823492200396,-0.804163597577361,-0.9333410203910588,-0.17650012524868475,0.9322536140043287,0.3428497433255479,0.37038039496619946,-0.4540812412202875,-0.99325074804397,0.7945491399841216,0.2899321404792486,0.3879238768562918,1,2.953125
0.6309562250712307,-0.7332262949108281,-0.06220413946960342,-0.708199722943588,-0.8200044048435466,-0.22765457007677156,1.1602907781876262,0.5708196592448608,0.26012853087355897,-0.7119416925463615,-1.0754795532724593,0.6406707705949529,0.22111081459883644,0.42787626198726075,1,2.9609375
0.775714127464511,-0.6134631429556706,0.031329158011660155,-0.498549418581446,-0.7441481828274549,-0.3223847117383679,1.4347574080445662,0.643864960936377,0.05415418828102675,-0.8394063297114632,-1.0609767853147103,0.7115121592878161,0.19930330369518215,0.4835958617160263,1,2.96875
0.7353884397069275,-0.6814300738550099,0.028977358609107114,-0.6430471073417592,-0.914280860318123,-0.10956013359065761,1.6996420033097706,0.6414936771427859,0.03770966037346578,-1.034940483477188,-1.3320341403340623,0.7260186923197272,0.09729375628774495,0.35537672206207216,1,2.9765625
0.5261151599616475,-0.8516025133548478,-0.03618653573197634,-0.8400215252931488,-0.9752862829933974,0.20724088285316,1.9026873659046215,0.8799826564494447,0.6078832155311756,-1.0227123757367391,-1.6645222435260034,0.6907125761428562,0.011305680608328088,0.2536521474920884,1,2.984375
0.47201829140793183,-0.848614227390901,-0.05540457850694568,-0.7707345132549872,-0.7945682472682104,0.09312803147209522,1.7950171921266687,1.3557131622699967,1.3486864110204602,-0.4558258072796746,-1.5268409695320537,0.811765526246452,0.09522214055969065,0.4181547658020493,1,2.9921875
0.5833724451149153,-0.7317262481858066,-0.012371320484630004,-0.6667675426487122,-0.6304285124455938,-0.06170653240554299,1.5707277911324944,1.5560546723689623,1.3920626611757687,0.06666147864315744,-1.0739258726375156,1.0684754297595302,0.2888768568199889,0.6089549561665991,1,3.0
0.6212748671389869,-0.8212712633258171,0.09408667133546705,-0.7081407136239695,-0.6016107899248884,0.22417211481940572,1.6491506876538575,1.1730540228071018,0.790777821052047,-0.16170766976217124,-0.9830182286168194,1.1357160362573118,0.31237373971355753,0.493288744431507,1,3.0078125
0.5603610200489305,-1.0250604449148972,0.2365394945113356,-0.7265923017727804,-0.6121231139782479,0.39893528241116105,1.8145454711936861,0.6327909309664265,0.35709755304008883,-0.7273925367321203,-1.3215795946763187,0.9243095173334981,0.08631690485860868,0.2900686833895071,1,3.015625
0.5250961972420148,-0.9589532487155901,0.2678312904826712,-0.5778021218257458,-0.5470691429484208,0.21148445749935132,1.7056721522321172,0.3821348245316194,0.2990557356451842,-0.9331449271939851,-1.4932711498548723,0.8066584931553781,-0.04780573767861844,0.35627248714160964,1,3.0234375
0.5160371184651267,-0.7316799465289138,0.12194379186966721,-0.41106405059201634,-0.3296782616774212,0.2202745923460098,1.5086437876954584,0.36901139246005266,0.3733797292886808,-0.788250277274815,-1.2941195461348725,0.9433169977570307,0.12366103565171216,0.5196160855999813,1,3.03125
0.4838362821319446,-0.7265278488651125,-0.04935738737310684,-0.4651245294111585,-0.1194263048086461,0.3396049901793209,1.412994470965885,0.525673895304829,0.6181592909720081,-0.5310518317379668,-1.0869593302078515,1.0371565637114564,0.3349969547377475,0.49483651865622935,1,3.0390625
0.4175004087426679,-0.8499534998598083,-0.14269873484270998,-0.6837656003513422,-0.24899425546238563,0.1007761814892282,1.2900760289737303,0.7627030117329395,0.7845908316503313,-0.3595880943210978,-1.0946072188258915,0.9658107788376654,0.3526395755443197,0.380085082041882,1,3.046875
0.3252178126044517,-0.8688988894696013,-0.1465717038935881,-0.820049729101754,-0.6221669460232783,-0.22003735958766527,1.1437372078493226,0.7526381938458045,0.5005835755659019,-0.5474995481683786,-1.2490676313385674,0.896634096690828,0.2709599762812518,0.3174611988347263,1,3.0546875
0.31161769899682235,-0.9096741159745848,-0.025213069009210366,-0.8278799282942682,-0.7779714612004733,-0.279053089854542,1.1143285018895044,0.5259827113081981,0.23406405754665105,-0.9245960308311815,-1.4071247963045967,0.852849811316612,0.17630155193114924,0.27847482225682746,1,3.0625
0.4251107687614223,-1.0003556751801927,-0.005923905659521085,-0.86780308975249,-0.7178987789625481,-0.14814402373484836,1.1929027132282635,0.5330204797878482,0.47644879136214674,-0.9214447307913628,-1.4238198143576515,0.7403081824225283,0.08720000715775081,0.2590579133081183,1,3.0703125
0.4659140973905956,-0.959215468439191,-0.38859187123961325,-1.0629800751516825,-0.7018275375346428,0.18279325751891176,1.3718199471146293,0.889128636390132,0.8653859976982006,-0.5103118507875221,-1.3145684280489378,0.581704654058246,0.12258582983972244,0.28198897546550444,1,3.078125
0.3783424920087009,-0.8744172361754925,-0.8131892979964912,-1.2827499929690906,-0.570352927753302,0.5205131932435525,1.63709174404565,1.270861781882404,1.086500456889467,-0.18587113274715514,-1.2039139669471501,0.5021218458185944,0.29830602468826856,0.3423779326022302,1,3.0859375
0.4281753129018136,-0.9064521690633254,-0.7250000497925323,-1.2986439918982389,-0.4141078163976639,0.3647498875226314,1.6551172444489086,1.2996093322372253,1.1726590635448695,-0.16258297561346244,-1.1354672237843895,0.5624139649109596,0.4095450476237507,0.41747543065559295,1,3.09375
0.5856717449755967,-0.9933166285261381,-0.3823814363898509,-1.27757897243367,-0.7520548444642329,-0.24492827548743923,1.1736520851854506,0.8596501163789505,0.9914672923528811,-0.3292183166743097,-1.2062780748523425,0.5981546962037718,0.3203166688317852,0.4072092302208379,1,3.1015625
0.5050983379204224,-1.0813292931866822,-0.3660826777130431,-1.4728799753266157,-1.2100775747170323,-0.6782882082797076,0.6678924232666507,0.36240495308446075,0.6464144762961447,-0.5052561712015097,-1.4659368094912562,0.4362912223633954,0.1169806113312724,0.24672866837831442,1,3.109375
0.25179363015675676,-1.0787568872071183,-0.7061064554085044,-1.6176186902711778,-0.9774519016203893,-0.6064972531587665,0.6811198311662547,0.2839895450248829,0.5460596629921123,-0.48634144930668216,-1.6622584155895619,0.21937905618821202,-0.020421240189215237,0.07830820494368766,1,3.1171875
0.12798282824321927,-0.9219425816821916,-1.089818859152368,-1.5647292544893108,-0.509421864047761,-0.3341554069208858,0.9025730254885087,0.49082333180273585,0.665491205017639,-0.3216827828201724,-1.6067993599354715,0.1486804438235676,0.022557473467565682,0.06900782139857947,1,3.125
0.07742882000570271,-0.9217142336065663,-1.2476852021128209,-1.6548944778564554,-0.5569479813664222,-0.21053189084483948,0.8854294305317973,0.6772499064014239,0.699949394079126,-0.2747605778245714,-1.421079910739296,0.20011099919451006,0.15616783851773816,0.15265780477245286,1,3.1328125
0.03148583540799707,-1.21552472071566,-1.0920859988332967,-1.812827048476691,-0.7129420082023162,-0.1324555157859547,0.8669572660096809,0.8452683196952127,0.6024184431495014,-0.3595396127709837,-1.244254198775759,0.34834258341457347,0.17350846594953268,0.18743763147995676,1,3.140625
0.15964320387288355,-1.3220945941128046,-0.7540689965512438,-1.6616859764396548,-0.6039292987541269,-0.012420757510638964,1.0024327248785179,0.87553420010197,0.47112319054263696,-0.4173393171807821,-1.1663865981660677,0.630334342203284,0.08207463587011742,0.23982889941052238,1,3.1484375
0.37040156523179,-1.0773643059337152,-0.3907348935891402,-1.4391332158335317,-0.587778195586988,-0.08083379217471304,1.0007322271797094,0.7135705898373883,0.5467611024093417,-0.38797656995011504,-1.1485397927876209,0.9568506493762136,0.11501516361823917,0.40612019422401996,1,3.15625
0.3697011451830187,-0.9470386350191217,-0.2006785909094196,-1.4828562398767104,-0.6785288773245094,-0.18608154381677983,0.9964383870094935,0.8878597874283058,1.0508684057694075,-0.19227278858652108,-0.9506682249116089,1.1955112522857827,0.3288708315261473,0.515478353746642,1,3.1640625
0.21581983968769275,-1.0029644553305213,-0.32511678673894645,-1.5427760046478047,-0.6196939625545351,0.03064123162313221,1.3400868386496536,1.5604034610094975,1.6197100354887697,0.18690349710950271,-0.6389455347255772,1.3098817973680197,0.5038847578865822,0.4154081207224885,1,3.171875
0.15620125144461441,-0.9253425041612259,-0.4332905687564022,-1.4445633490713707,-0.5817144820298434,0.2114747171868942,1.682043480320161,1.9267275174586649,1.7134624234302522,0.503686605973357,-0.6046832402139961,1.2898517326168009,0.5092692026779971,0.3007650723909258,1,3.1796875
0.20140480344875866,-0.8549848276725274,-0.20469315688451353,-1.4703915275502983,-0.6654666960515452,0.030719362859631828,1.6503638547799662,1.6605988864111927,1.389890912719348,0.4776532996322868,-0.8120650510617958,1.1626461838612596,0.4583066061729445,0.37903565173900117,1,3.1875
0.26090970824253173,-1.03519007474074,-0.0053534060914772735,-1.6761574000749544,-0.6459601392045123,-0.02688340661355758,1.5895878403117776,1.421474307186894,0.9885461839486502,0.1463398720190017,-0.9011779474588094,1.1002475912992025,0.4507055037624549,0.5289316389333659,1,3.1953125
0.30163153945806614,-1.2051490291879954,-0.20153423218626323,-1.7238849671449146,-0.5306329191748971,0.13786432563635045,1.6440142964618647,1.3860926524739041,0.7921781603663011,-0.13201628020764303,-0.8729939890948649,1.1836106478114095,0.431558716562857,0.5198960695336524,1,3.203125
0.2604113134603524,-1.1303131081909237,-0.5443180624044703,-1.5639646299108394,-0.47790093800214983,-0.024452227206948625,1.478034599062839,1.1148712639216294,0.9354564722423082,-0.09891800027954066,-0.934088799964679,1.1194522650425311,0.38575302066333095,0.3549461692852498,1,3.2109375
0.17518332466085348,-0.991286078343199,-0.7091806635211431,-1.494547798579163,-0.40854474033832056,-0.35505396584664567,1.2349817753282475,0.725565150377576,0.9490618672108057,0.04702921557536791,-1.0830267335383694,0.734204283635165,0.4022246880628027,0.26094732979017604,1,3.21875
0.19314000122672906,-0.9923275950362576,-0.6973035377567234,-1.5553505454033734,-0.3446608676574359,-0.3100292135416969,1.275795977222024,0.5962352998191671,0.35366272958647893,-0.1013610449524427,-1.278491036805741,0.41960975331675815,0.3848002708720522,0.2768538082759763,1,3.2265625
0.22662554869118162,-1.1175127134823601,-0.694610396528087,-1.562081082932037,-0.4839142913031532,-0.17108430162447075,1.3452259922675938,0.5845645938787698,-0.26291848938361095,-0.6333312233989055,-1.5799496670058837,0.42539508980446283,0.11469648987725953,0.1502120662859302,1,3.234375
0.12624744590066303,-1.147993387683397,-0.8023685302600826,-1.5179481175095393,-0.6151550574071308,-0.32758338375022783,1.2168598745770385,0.5142403161949165,-0.16132505599331093,-1.0827436512100266,-1.8197540421041536,0.4795877056075207,-0.1797269251043784,-0.047910890967241285,1,3.2421875
0.0963721554978935,-0.9149498596099744,-0.8039072007664179,-1.5080803495356094,-0.4449392795660818,-0.3873432851522505,1.2719702831224327,0.5920612921590152,0.36482352165685566,-0.8472304127049145,-1.6176923021711267,0.5429744586689164,-0.02183145224009121,0.09689120954835412,1,3.25
0.24987170316519433,-0.7120487682714072,-0.47969721207730454,-1.516141385503284,-0.33973425378991806,-0.06616381199039,1.6443526646874411,0.9523092743578699,0.789579541564895,-0.13536049321930943,-1.1286825064493098,0.8070698187003678,0.4034525160598456,0.43164975329268923,1,3.2578125
0.2785404308475406,-0.8797550925233608,-0.09955716897840723,-1.511784981365059,-0.6354228594236339,0.18702739993469278,1.835272134814244,1.326844405635267,0.9840241001201488,0.10615545328642215,-1.0205739279100188,0.9939083345857511,0.4913814686371905,0.3916943496274528,1,3.265625
0.13765700696886798,-1.1014678962389883,-0.033995289964989996,-1.507183075403502,-0.91683189847189,0.05861362834194851,1.624846445499475,1.341849875136871,0.8753123615113427,-0.27545313773903474,-1.2744535687315528,0.8251301249379316,0.2701382562880206,0.139547500825299,1,3.2734375
0.1805636170027789,-0.9752770860332413,-0.11060040881715073,-1.5294540912192731,-0.8233567731429178,-0.11867762576970356,1.422692553611104,1.1176744715742544,0.756521019063128,-0.3248081101603868,-1.190982254010124,0.7138849708789585,0.2409737017314722,0.27488309120474447,1,3.28125
0.36927856772942014,-0.7331786512145837,-0.0262485229540706,-1.5434978509021762,-0.6259399017568218,-0.05384348622456234,1.451719144784028,1.1725151642980631,1.0533487394304604,0.24814783149799374,-0.7735425424584279,1.0178427188908654,0.47886915464928714,0.6335574978765881,1,3.2890625
